|6.6.6
Archiving\03_Data\DeqLP/QFM_m5/K22/K22_6.tab                          
           1
T(K)    
  0.000000000000000E+000
  0.000000000000000E+000
           0
           3
T(K)           P(bar)         rho,kg/m3     
  2000.00        500.000        7278.29     
  1996.79        500.000        7279.65     
  1993.59        500.000        7280.99     
  1990.38        500.000        7282.34     
  1987.18        500.000        7283.69     
  1983.97        500.000        7285.04     
  1980.77        500.000        7286.39     
  1977.56        500.000        7287.73     
  1974.36        500.000        7289.08     
  1971.15        500.000        7290.43     
  1967.95        500.000        7291.77     
  1964.74        500.000        7293.12     
  1961.54        500.000        7294.46     
  1958.33        500.000        7295.80     
  1955.13        500.000        7297.15     
  1951.92        500.000        7298.49     
  1948.72        500.000        7299.83     
  1945.51        500.000        7301.17     
  1942.31        500.000        7302.51     
  1939.10        500.000        6558.24     
  1935.90        500.000        6607.85     
  1932.69        500.000        5726.57     
  1929.49        500.000        5200.55     
  1926.28        500.000        4851.08     
  1923.08        500.000        4602.11     
  1919.87        500.000        4431.18     
  1916.67        500.000        4295.65     
  1913.46        500.000        4185.58     
  1910.26        500.000        4094.44     
  1907.05        500.000        4017.73     
  1903.85        500.000        3952.31     
  1900.64        500.000        3895.87     
  1897.44        500.000        3846.68     
  1894.23        500.000        3807.53     
  1891.03        500.000        3772.45     
  1887.82        500.000        3740.84     
  1884.62        500.000        3712.22     
  1881.41        500.000        3686.19     
  1878.21        500.000        3662.41     
  1875.00        500.000        3640.62     
  1871.79        500.000        3620.58     
  1868.59        500.000        3603.42     
  1865.38        500.000        3587.16     
  1862.18        500.000        3572.46     
  1858.97        500.000        3558.73     
  1855.77        500.000        3546.29     
  1852.56        500.000        3534.62     
  1849.36        500.000        3523.65     
  1846.15        500.000        3513.31     
  1842.95        500.000        3503.81     
  1839.74        500.000        3494.82     
  1836.54        500.000        3486.29     
  1833.33        500.000        3478.21     
  1830.13        500.000        3470.53     
  1826.92        500.000        3463.22     
  1823.72        500.000        3456.27     
  1820.51        500.000        3449.65     
  1817.31        500.000        3443.37     
  1814.10        500.000        3437.37     
  1810.90        500.000        3431.64     
  1807.69        500.000        3426.14     
  1804.49        500.000        3420.88     
  1801.28        500.000        3415.84     
  1798.08        500.000        3411.00     
  1794.87        500.000        3406.36     
  1791.67        500.000        3401.78     
  1788.46        500.000        3397.38     
  1785.26        500.000        3393.15     
  1782.05        500.000        3389.08     
  1778.85        500.000        3385.16     
  1775.64        500.000        3381.38     
  1772.44        500.000        3377.74     
  1769.23        500.000        3374.23     
  1766.03        500.000        3370.68     
  1762.82        500.000        3367.26     
  1759.62        500.000        3363.95     
  1756.41        500.000        3360.76     
  1753.21        500.000        3357.67     
  1750.00        500.000        3354.69     
  1746.79        500.000        3351.81     
  1743.59        500.000        3349.03     
  1740.38        500.000        3346.17     
  1737.18        500.000        3343.40     
  1733.97        500.000        3340.72     
  1730.77        500.000        3338.13     
  1727.56        500.000        3335.63     
  1724.36        500.000        3333.20     
  1721.15        500.000        3330.85     
  1717.95        500.000        3328.57     
  1714.74        500.000        3326.26     
  1711.54        500.000        3324.03     
  1708.33        500.000        3321.87     
  1705.13        500.000        3319.75     
  1701.92        500.000        3317.68     
  1698.72        500.000        3315.67     
  1695.51        500.000        3313.72     
  1692.31        500.000        3311.84     
  1689.10        500.000        3309.94     
  1685.90        500.000        3308.10     
  1682.69        500.000        3306.31     
  1679.49        500.000        3304.57     
  1676.28        500.000        3302.89     
  1673.08        500.000        3301.25     
  1669.87        500.000        3299.66     
  1666.67        500.000        3298.11     
  1663.46        500.000        3296.58     
  1660.26        500.000        3295.09     
  1657.05        500.000        3293.64     
  1653.85        500.000        3292.23     
  1650.64        500.000        3290.85     
  1647.44        500.000        3289.52     
  1644.23        500.000        3288.22     
  1641.03        500.000        3286.96     
  1637.82        500.000        3285.78     
  1634.62        500.000        3284.63     
  1631.41        500.000        3284.29     
  1628.21        500.000        3285.08     
  1625.00        500.000        3285.89     
  1621.79        500.000        3286.69     
  1618.59        500.000        3287.24     
  1615.38        500.000        3286.31     
  1612.18        500.000        3285.68     
  1608.97        500.000        3285.09     
  1605.77        500.000        3284.53     
  1602.56        500.000        3283.99     
  1599.36        500.000        3283.49     
  1596.15        500.000        3283.01     
  1592.95        500.000        3282.56     
  1589.74        500.000        3282.13     
  1586.54        500.000        3281.98     
  1583.33        500.000        3281.84     
  1580.13        500.000        3281.70     
  1576.92        500.000        3281.59     
  1573.72        500.000        3281.48     
  1570.51        500.000        3281.38     
  1567.31        500.000        3281.29     
  1564.10        500.000        3281.22     
  1560.90        500.000        3281.27     
  1557.69        500.000        3281.32     
  1554.49        500.000        3281.39     
  1551.28        500.000        3281.46     
  1548.08        500.000        3281.53     
  1544.87        500.000        3281.61     
  1541.67        500.000        3281.70     
  1538.46        500.000        3281.79     
  1535.26        500.000        3281.95     
  1532.05        500.000        3282.10     
  1528.85        500.000        3282.26     
  1525.64        500.000        3282.43     
  1522.44        500.000        3282.60     
  1519.23        500.000        3282.77     
  1516.03        500.000        3282.95     
  1512.82        500.000        3283.12     
  1509.62        500.000        3283.33     
  1506.41        500.000        3283.55     
  1503.21        500.000        3283.76     
  1500.00        500.000        3283.98     
  1496.79        500.000        3284.21     
  1493.59        500.000        3284.43     
  1490.38        500.000        3284.66     
  1487.18        500.000        3284.89     
  1483.97        500.000        3285.13     
  1480.77        500.000        3285.38     
  1477.56        500.000        3285.65     
  1474.36        500.000        3285.96     
  1471.15        500.000        3286.30     
  1467.95        500.000        3286.65     
  1464.74        500.000        3286.99     
  1461.54        500.000        3287.34     
  1458.33        500.000        3287.71     
  1455.13        500.000        3288.09     
  1451.92        500.000        3288.48     
  1448.72        500.000        3288.77     
  1445.51        500.000        3289.21     
  1442.31        500.000        3289.65     
  1439.10        500.000        3290.09     
  1435.90        500.000        3290.24     
  1432.69        500.000        3290.62     
  1429.49        500.000        3290.49     
  1426.28        500.000        3290.93     
  1423.08        500.000        3288.91     
  1419.87        500.000        3289.35     
  1416.67        500.000        3289.78     
  1413.46        500.000        3290.22     
  1410.26        500.000        3286.76     
  1407.05        500.000        3287.20     
  1403.85        500.000        3287.63     
  1400.64        500.000        3288.07     
  1397.44        500.000        3288.50     
  1394.23        500.000        3288.93     
  1391.03        500.000        3289.37     
  1387.82        500.000        3289.80     
  1384.62        500.000        3284.58     
  1381.41        500.000        3285.01     
  1378.21        500.000        3285.44     
  1375.00        500.000        3285.87     
  1371.79        500.000        3286.30     
  1368.59        500.000        3286.73     
  1365.38        500.000        3287.16     
  1362.18        500.000        3287.58     
  1358.97        500.000        3283.72     
  1355.77        500.000        3284.14     
  1352.56        500.000        3284.57     
  1349.36        500.000        3284.99     
  1346.15        500.000        3285.41     
  1342.95        500.000        3285.84     
  1339.74        500.000        3286.26     
  1336.54        500.000        3286.68     
  1333.33        500.000        3283.53     
  1330.13        500.000        3283.95     
  1326.92        500.000        3284.37     
  1323.72        500.000        3284.79     
  1320.51        500.000        3285.21     
  1317.31        500.000        3285.63     
  1314.10        500.000        3286.05     
  1310.90        500.000        3286.47     
  1307.69        500.000        3283.82     
  1304.49        500.000        3284.23     
  1301.28        500.000        3284.65     
  1298.08        500.000        3285.07     
  1294.87        500.000        3284.11     
  1291.67        500.000        3284.53     
  1288.46        500.000        3284.30     
  1285.26        500.000        3284.40     
  1282.05        500.000        3275.05     
  1278.85        500.000        3275.47     
  1275.64        500.000        3275.88     
  1272.44        500.000        3276.29     
  1269.23        500.000        3276.70     
  1266.03        500.000        3277.11     
  1262.82        500.000        3277.52     
  1259.62        500.000        3277.93     
  1256.41        500.000        3277.97     
  1253.21        500.000        3278.38     
  1250.00        500.000        3278.79     
  1246.79        500.000        3279.20     
  1243.59        500.000        3279.61     
  1240.38        500.000        3280.02     
  1237.18        500.000        3280.43     
  1233.97        500.000        3280.83     
  1230.77        500.000        3280.91     
  1227.56        500.000        3281.31     
  1224.36        500.000        3281.72     
  1221.15        500.000        3282.13     
  1217.95        500.000        3282.53     
  1214.74        500.000        3282.94     
  1211.54        500.000        3283.34     
  1208.33        500.000        3283.75     
  1205.13        500.000        3283.85     
  1201.92        500.000        3284.25     
  1198.72        500.000        3284.66     
  1195.51        500.000        3285.06     
  1192.31        500.000        3285.47     
  1189.10        500.000        3285.87     
  1185.90        500.000        3286.28     
  1182.69        500.000        3286.68     
  1179.49        500.000        3286.80     
  1176.28        500.000        3287.21     
  1173.08        500.000        3287.61     
  1169.87        500.000        3288.01     
  1166.67        500.000        3288.41     
  1163.46        500.000        3288.81     
  1160.26        500.000        3289.22     
  1157.05        500.000        3289.62     
  1153.85        500.000        3289.77     
  1150.64        500.000        3290.17     
  1147.44        500.000        3290.57     
  1144.23        500.000        3290.97     
  1141.03        500.000        3291.37     
  1137.82        500.000        3291.77     
  1134.62        500.000        3292.17     
  1131.41        500.000        3292.57     
  1128.21        500.000        3292.75     
  1125.00        500.000        3293.14     
  1121.79        500.000        3293.54     
  1118.59        500.000        3293.94     
  1115.38        500.000        3294.34     
  1112.18        500.000        3294.73     
  1108.97        500.000        3295.13     
  1105.77        500.000        3295.53     
  1102.56        500.000        3295.73     
  1099.36        500.000        3296.13     
  1096.15        500.000        3296.53     
  1092.95        500.000        3296.92     
  1089.74        500.000        3297.32     
  1086.54        500.000        3297.71     
  1083.33        500.000        3298.11     
  1080.13        500.000        3298.50     
  1076.92        500.000        3298.74     
  1073.72        500.000        3299.13     
  1070.51        500.000        3299.53     
  1067.31        500.000        3299.92     
  1064.10        500.000        3300.31     
  1060.90        500.000        3300.71     
  1057.69        500.000        3301.10     
  1054.49        500.000        3301.49     
  1051.28        500.000        3301.78     
  1048.08        500.000        3302.17     
  1044.87        500.000        3302.56     
  1041.67        500.000        3302.95     
  1038.46        500.000        3303.34     
  1035.26        500.000        3303.73     
  1032.05        500.000        3304.13     
  1028.85        500.000        3304.52     
  1025.64        500.000        3304.80     
  1022.44        500.000        3305.19     
  1019.23        500.000        3305.58     
  1016.03        500.000        3305.97     
  1012.82        500.000        3306.36     
  1009.62        500.000        3306.75     
  1006.41        500.000        3307.14     
  1003.21        500.000        3307.53     
  1000.00        500.000        3307.87     
