|6.6.6
Archiving\03_Data\eq/QFM_m1.75/GRV/GRV_3.tab                              
           1
T(K)    
  0.000000000000000E+000
  0.000000000000000E+000
           0
           9
T(K)           P(bar)         melt(TH)       pxmn           Sp(TH)         O(HP)          Opx(TH)        Cpx(TH)        Cpx(TH)       
  2000.00        2500.00        99.3204       0.679578                 NaN            NaN            NaN            NaN            NaN
  1996.79        2500.00        99.3203       0.679651                 NaN            NaN            NaN            NaN            NaN
  1993.59        2500.00        99.3203       0.679724                 NaN            NaN            NaN            NaN            NaN
  1990.38        2500.00        99.3202       0.679797                 NaN            NaN            NaN            NaN            NaN
  1987.18        2500.00        99.3201       0.679869                 NaN            NaN            NaN            NaN            NaN
  1983.97        2500.00        99.3201       0.679942                 NaN            NaN            NaN            NaN            NaN
  1980.77        2500.00        99.3200       0.680015                 NaN            NaN            NaN            NaN            NaN
  1977.56        2500.00        99.3199       0.680089                 NaN            NaN            NaN            NaN            NaN
  1974.36        2500.00        99.3198       0.680162                 NaN            NaN            NaN            NaN            NaN
  1971.15        2500.00        99.3198       0.680235                 NaN            NaN            NaN            NaN            NaN
  1967.95        2500.00        99.3197       0.680308                 NaN            NaN            NaN            NaN            NaN
  1964.74        2500.00        99.3196       0.680381                 NaN            NaN            NaN            NaN            NaN
  1961.54        2500.00        99.3195       0.680455                 NaN            NaN            NaN            NaN            NaN
  1958.33        2500.00        99.3195       0.680528                 NaN            NaN            NaN            NaN            NaN
  1955.13        2500.00        99.3194       0.680601                 NaN            NaN            NaN            NaN            NaN
  1951.92        2500.00        99.3193       0.680675                 NaN            NaN            NaN            NaN            NaN
  1948.72        2500.00        99.3193       0.680748                 NaN            NaN            NaN            NaN            NaN
  1945.51        2500.00        99.3192       0.680822                 NaN            NaN            NaN            NaN            NaN
  1942.31        2500.00        99.3191       0.680895                 NaN            NaN            NaN            NaN            NaN
  1939.10        2500.00        99.3190       0.680969                 NaN            NaN            NaN            NaN            NaN
  1935.90        2500.00        99.3190       0.681043                 NaN            NaN            NaN            NaN            NaN
  1932.69        2500.00        99.3189       0.681116                 NaN            NaN            NaN            NaN            NaN
  1929.49        2500.00        99.3188       0.681190                 NaN            NaN            NaN            NaN            NaN
  1926.28        2500.00        99.3187       0.681264                 NaN            NaN            NaN            NaN            NaN
  1923.08        2500.00        99.3187       0.681338                 NaN            NaN            NaN            NaN            NaN
  1919.87        2500.00        99.3186       0.681412                 NaN            NaN            NaN            NaN            NaN
  1916.67        2500.00        99.3185       0.681485                 NaN            NaN            NaN            NaN            NaN
  1913.46        2500.00        99.3184       0.681559                 NaN            NaN            NaN            NaN            NaN
  1910.26        2500.00        99.3184       0.681633                 NaN            NaN            NaN            NaN            NaN
  1907.05        2500.00        99.3183       0.681707                 NaN            NaN            NaN            NaN            NaN
  1903.85        2500.00        99.3182       0.681781                 NaN            NaN            NaN            NaN            NaN
  1900.64        2500.00        99.3181       0.681855                 NaN            NaN            NaN            NaN            NaN
  1897.44        2500.00        99.3181       0.681930                 NaN            NaN            NaN            NaN            NaN
  1894.23        2500.00        99.3180       0.682004                 NaN            NaN            NaN            NaN            NaN
  1891.03        2500.00        99.3179       0.682078                 NaN            NaN            NaN            NaN            NaN
  1887.82        2500.00        99.3178       0.682152                 NaN            NaN            NaN            NaN            NaN
  1884.62        2500.00        99.3178       0.682226                 NaN            NaN            NaN            NaN            NaN
  1881.41        2500.00        99.3177       0.682301                 NaN            NaN            NaN            NaN            NaN
  1878.21        2500.00        99.3176       0.682375                 NaN            NaN            NaN            NaN            NaN
  1875.00        2500.00        99.3176       0.682450                 NaN            NaN            NaN            NaN            NaN
  1871.79        2500.00        99.3175       0.682524                 NaN            NaN            NaN            NaN            NaN
  1868.59        2500.00        99.3174       0.682599                 NaN            NaN            NaN            NaN            NaN
  1865.38        2500.00        99.3173       0.682673                 NaN            NaN            NaN            NaN            NaN
  1862.18        2500.00        99.3173       0.682748                 NaN            NaN            NaN            NaN            NaN
  1858.97        2500.00        99.3172       0.682822                 NaN            NaN            NaN            NaN            NaN
  1855.77        2500.00        99.3171       0.682897                 NaN            NaN            NaN            NaN            NaN
  1852.56        2500.00        99.3170       0.682972                 NaN            NaN            NaN            NaN            NaN
  1849.36        2500.00        99.3170       0.683046                 NaN            NaN            NaN            NaN            NaN
  1846.15        2500.00        99.3169       0.683121                 NaN            NaN            NaN            NaN            NaN
  1842.95        2500.00        99.3168       0.683196                 NaN            NaN            NaN            NaN            NaN
  1839.74        2500.00        99.3167       0.683271                 NaN            NaN            NaN            NaN            NaN
  1836.54        2500.00        99.3167       0.683346                 NaN            NaN            NaN            NaN            NaN
  1833.33        2500.00        99.3166       0.683421                 NaN            NaN            NaN            NaN            NaN
  1830.13        2500.00        99.3165       0.683495                 NaN            NaN            NaN            NaN            NaN
  1826.92        2500.00        99.3148       0.683572       0.157859E-002            NaN            NaN            NaN            NaN
  1823.72        2500.00        99.3044       0.683661       0.118949E-001            NaN            NaN            NaN            NaN
  1820.51        2500.00        99.2940       0.683750       0.222140E-001            NaN            NaN            NaN            NaN
  1817.31        2500.00        99.2806       0.683843       0.356020E-001            NaN            NaN            NaN            NaN
  1814.10        2500.00        99.2671       0.683936       0.489937E-001            NaN            NaN            NaN            NaN
  1810.90        2500.00        99.2536       0.684029       0.623891E-001            NaN            NaN            NaN            NaN
  1807.69        2500.00        99.2401       0.684122       0.757883E-001            NaN            NaN            NaN            NaN
  1804.49        2500.00        99.2266       0.684215       0.891912E-001            NaN            NaN            NaN            NaN
  1801.28        2500.00        99.2131       0.684308       0.102598                 NaN            NaN            NaN            NaN
  1798.08        2500.00        99.1996       0.684401       0.116008                 NaN            NaN            NaN            NaN
  1794.87        2500.00        99.1861       0.684494       0.129422                 NaN            NaN            NaN            NaN
  1791.67        2500.00        99.1735       0.684586       0.141898                 NaN            NaN            NaN            NaN
  1788.46        2500.00        99.1609       0.684677       0.154378                 NaN            NaN            NaN            NaN
  1785.26        2500.00        99.1484       0.684769       0.166861                 NaN            NaN            NaN            NaN
  1782.05        2500.00        99.1358       0.684861       0.179347                 NaN            NaN            NaN            NaN
  1778.85        2500.00        99.1232       0.684952       0.191837                 NaN            NaN            NaN            NaN
  1775.64        2500.00        99.1106       0.685044       0.204330                 NaN            NaN            NaN            NaN
  1772.44        2500.00        99.0980       0.685136       0.216826                 NaN            NaN            NaN            NaN
  1769.23        2500.00        99.0854       0.685227       0.229326                 NaN            NaN            NaN            NaN
  1766.03        2500.00        98.8035       0.685416       0.241332       0.269782                 NaN            NaN            NaN
  1762.82        2500.00        98.0462       0.685774       0.253080        1.01490                 NaN            NaN            NaN
  1759.62        2500.00        97.2851       0.686132       0.264686        1.76404                 NaN            NaN            NaN
  1756.41        2500.00        96.5233       0.686488       0.276304        2.51393                 NaN            NaN            NaN
  1753.21        2500.00        95.7583       0.686842       0.287551        3.26735                 NaN            NaN            NaN
  1750.00        2500.00        94.9925       0.687195       0.298808        4.02151                 NaN            NaN            NaN
  1746.79        2500.00        94.2260       0.687546       0.310077        4.77641                 NaN            NaN            NaN
  1743.59        2500.00        93.4587       0.687895       0.321355        5.53204                 NaN            NaN            NaN
  1740.38        2500.00        92.6869       0.688244       0.331978        6.29289                 NaN            NaN            NaN
  1737.18        2500.00        91.9143       0.688591       0.342610        7.05447                 NaN            NaN            NaN
  1733.97        2500.00        91.1411       0.688937       0.353251        7.81676                 NaN            NaN            NaN
  1730.77        2500.00        90.3671       0.689280       0.363903        8.57976                 NaN            NaN            NaN
  1727.56        2500.00        89.5923       0.689620       0.374563        9.34347                 NaN            NaN            NaN
  1724.36        2500.00        88.8169       0.689959       0.385233        10.1079                 NaN            NaN            NaN
  1721.15        2500.00        88.0408       0.690295       0.395912        10.8730                 NaN            NaN            NaN
  1717.95        2500.00        87.2640       0.690629       0.406599        11.6387                 NaN            NaN            NaN
  1714.74        2500.00        86.4997       0.690957       0.416389        12.3930                 NaN            NaN            NaN
  1711.54        2500.00        85.7346       0.691282       0.426186        13.1479                 NaN            NaN            NaN
  1708.33        2500.00        84.9690       0.691604       0.435991        13.9034                 NaN            NaN            NaN
  1705.13        2500.00        84.2027       0.691925       0.445803        14.6596                 NaN            NaN            NaN
  1701.92        2500.00        83.4357       0.692243       0.455623        15.4164                 NaN            NaN            NaN
  1698.72        2500.00        82.6682       0.692558       0.465450        16.1738                 NaN            NaN            NaN
  1695.51        2500.00        81.9000       0.692871       0.475284        16.9318                 NaN            NaN            NaN
  1692.31        2500.00        81.1313       0.693181       0.485125        17.6904                 NaN            NaN            NaN
  1689.10        2500.00        80.3863       0.693481       0.494383        18.4258                 NaN            NaN            NaN
  1685.90        2500.00        79.6408       0.693779       0.503648        19.1618                 NaN            NaN            NaN
  1682.69        2500.00        78.8947       0.694073       0.512918        19.8983                 NaN            NaN            NaN
  1679.49        2500.00        78.1482       0.694366       0.522194        20.6353                 NaN            NaN            NaN
  1676.28        2500.00        77.4186       0.694649       0.531134        21.3556                 NaN            NaN            NaN
  1673.08        2500.00        76.6886       0.694930       0.540079        22.0764                 NaN            NaN            NaN
  1669.87        2500.00        75.9505       0.695222       0.548856        22.7839       0.214973E-001            NaN            NaN
  1666.67        2500.00        73.7540       0.696904       0.556563        23.0722        1.92034                 NaN            NaN
  1663.46        2500.00        71.9446       0.698315       0.561356        23.2969        3.49888                 NaN            NaN
  1660.26        2500.00        70.1279       0.699729       0.566167        23.5224        5.08376                 NaN            NaN
  1657.05        2500.00        68.3040       0.701147       0.570995        23.7488        6.67500                 NaN            NaN
  1653.85        2500.00        66.4729       0.702569       0.575842        23.9761        8.27262                 NaN            NaN
  1650.64        2500.00        64.6345       0.703994       0.580706        24.2041        9.87665                 NaN            NaN
  1647.44        2500.00        62.7888       0.705423       0.585588        24.4331        11.4871                 NaN            NaN
  1644.23        2500.00        60.9358       0.706855       0.590489        24.6629        13.1040                 NaN            NaN
  1641.03        2500.00        59.0754       0.708291       0.595407        24.8935        14.7275                 NaN            NaN
  1637.82        2500.00        57.6986       0.709392       0.596075        25.0420        15.9539                 NaN            NaN
  1634.62        2500.00        56.3177       0.710494       0.596743        25.1909        17.1841                 NaN            NaN
  1631.41        2500.00        54.9327       0.711598       0.597412        25.3403        18.4180                 NaN            NaN
  1628.21        2500.00        53.5435       0.712704       0.598082        25.4900        19.6557                 NaN            NaN
  1625.00        2500.00        52.1501       0.713813       0.598753        25.6402        20.8971                 NaN            NaN
  1621.79        2500.00        50.7525       0.714923       0.599425        25.7907        22.1424                 NaN            NaN
  1618.59        2500.00        49.3508       0.716035       0.600098        25.9417        23.3914                 NaN            NaN
  1615.38        2500.00        47.9448       0.717148       0.600771        26.0931        24.6442                 NaN            NaN
  1612.18        2500.00        46.8055       0.718081       0.597656        26.1995        25.6793                 NaN            NaN
  1608.97        2500.00        45.6634       0.719016       0.594533        26.3060        26.7170                 NaN            NaN
  1605.77        2500.00        44.5185       0.719952       0.591400        26.4129        27.7573                 NaN            NaN
  1602.56        2500.00        43.3707       0.720889       0.588258        26.5199        28.8002                 NaN            NaN
  1599.36        2500.00        42.2201       0.721827       0.585107        26.6272        29.8458                 NaN            NaN
  1596.15        2500.00        41.0666       0.722767       0.581947        26.7347        30.8940                 NaN            NaN
  1592.95        2500.00        39.9102       0.723708       0.578778        26.8425        31.9448                 NaN            NaN
  1589.74        2500.00        38.7510       0.724650       0.575599        26.9505        32.9983                 NaN            NaN
  1586.54        2500.00        37.6976       0.725524       0.568658        27.0432        33.9650                 NaN            NaN
  1583.33        2500.00        36.6419       0.726399       0.561699        27.1360        34.9340                 NaN            NaN
  1580.13        2500.00        35.5837       0.727275       0.554723        27.2291        35.9053                 NaN            NaN
  1576.92        2500.00        34.5231       0.728153       0.547729        27.3223        36.8787                 NaN            NaN
  1573.72        2500.00        33.4704       0.729030       0.539102        27.4157        37.8458                 NaN            NaN
  1570.51        2500.00        32.4153       0.729909       0.530453        27.5094        38.8150                 NaN            NaN
  1567.31        2500.00        31.4040       0.730755       0.518332        27.6006        39.7463                 NaN            NaN
  1564.10        2500.00        30.3571       0.731631       0.507771        27.6939        40.5891       0.120498                 NaN
  1560.90        2500.00        29.0031       0.732780       0.508747        27.8035        39.9882        1.96368                 NaN
  1557.69        2500.00        27.6450       0.733931       0.509726        27.9133        39.3854        3.81261                 NaN
  1554.49        2500.00        26.2829       0.735085       0.510708        28.0235        38.7805        5.66729                 NaN
  1551.28        2500.00        24.9167       0.736241       0.511693        28.1340        38.1737        7.52775                 NaN
  1548.08        2500.00        23.5241       0.737447       0.507870        28.2633        37.8944        9.07291                 NaN
  1544.87        2500.00        22.0716       0.738732       0.494041        28.4196        38.3086        9.16477       0.802686     
  1541.67        2500.00        22.0703       0.738754       0.494059        28.4200        38.3092        9.16491       0.802697     
  1538.46        2500.00        19.2861       0.741235       0.451721        28.7449        39.9916        7.19665        3.58774     
