|6.6.6
Archiving\03_Data\eqLP/QFM_m0.5/KHA22/KHA22_6.tab                         
           1
T(K)    
  0.000000000000000E+000
  0.000000000000000E+000
           0
           3
T(K)           P(bar)         rho,kg/m3     
  2000.00        500.000        3977.44     
  1996.79        500.000        3959.36     
  1993.59        500.000        3942.07     
  1990.38        500.000        3925.52     
  1987.18        500.000        3909.66     
  1983.97        500.000        3894.44     
  1980.77        500.000        3879.84     
  1977.56        500.000        3865.82     
  1974.36        500.000        3852.33     
  1971.15        500.000        3825.99     
  1967.95        500.000        3801.54     
  1964.74        500.000        3778.79     
  1961.54        500.000        3757.57     
  1958.33        500.000        3737.74     
  1955.13        500.000        3719.16     
  1951.92        500.000        3701.72     
  1948.72        500.000        3685.33     
  1945.51        500.000        3646.96     
  1942.31        500.000        3613.60     
  1939.10        500.000        3584.35     
  1935.90        500.000        3558.50     
  1932.69        500.000        3535.50     
  1929.49        500.000        3514.90     
  1926.28        500.000        3496.36     
  1923.08        500.000        3479.60     
  1919.87        500.000        3427.76     
  1916.67        500.000        3389.52     
  1913.46        500.000        3360.18     
  1910.26        500.000        3337.00     
  1907.05        500.000        3318.24     
  1903.85        500.000        3302.77     
  1900.64        500.000        3289.82     
  1897.44        500.000        3278.82     
  1894.23        500.000        3261.12     
  1891.03        500.000        3247.61     
  1887.82        500.000        3236.99     
  1884.62        500.000        3228.44     
  1881.41        500.000        3189.80     
  1878.21        500.000        3182.02     
  1875.00        500.000        3182.42     
  1871.79        500.000        3182.82     
  1868.59        500.000        3183.88     
  1865.38        500.000        3184.88     
  1862.18        500.000        3185.81     
  1858.97        500.000        3186.69     
  1855.77        500.000        3187.53     
  1852.56        500.000        3188.33     
  1849.36        500.000        3189.11     
  1846.15        500.000        3189.85     
  1842.95        500.000        3191.46     
  1839.74        500.000        3192.99     
  1836.54        500.000        3194.43     
  1833.33        500.000        3195.80     
  1830.13        500.000        3197.11     
  1826.92        500.000        3198.36     
  1823.72        500.000        3199.56     
  1820.51        500.000        3200.71     
  1817.31        500.000        3202.34     
  1814.10        500.000        3203.90     
  1810.90        500.000        3205.40     
  1807.69        500.000        3206.85     
  1804.49        500.000        3208.25     
  1801.28        500.000        3209.60     
  1798.08        500.000        3210.90     
  1794.87        500.000        3212.17     
  1791.67        500.000        3213.84     
  1788.46        500.000        3215.47     
  1785.26        500.000        3217.04     
  1782.05        500.000        3218.57     
  1778.85        500.000        3220.05     
  1775.64        500.000        3221.50     
  1772.44        500.000        3222.90     
  1769.23        500.000        3224.27     
  1766.03        500.000        3225.85     
  1762.82        500.000        3227.39     
  1759.62        500.000        3228.90     
  1756.41        500.000        3230.37     
  1753.21        500.000        3231.80     
  1750.00        500.000        3233.20     
  1746.79        500.000        3234.58     
  1743.59        500.000        3235.92     
  1740.38        500.000        3237.41     
  1737.18        500.000        3238.86     
  1733.97        500.000        3240.29     
  1730.77        500.000        3241.69     
  1727.56        500.000        3243.07     
  1724.36        500.000        3244.42     
  1721.15        500.000        3245.74     
  1717.95        500.000        3247.04     
  1714.74        500.000        3248.41     
  1711.54        500.000        3249.75     
  1708.33        500.000        3251.08     
  1705.13        500.000        3252.38     
  1701.92        500.000        3253.66     
  1698.72        500.000        3254.92     
  1695.51        500.000        3256.16     
  1692.31        500.000        3257.38     
  1689.10        500.000        3258.62     
  1685.90        500.000        3259.84     
  1682.69        500.000        3261.04     
  1679.49        500.000        3262.23     
  1676.28        500.000        3263.40     
  1673.08        500.000        3264.56     
  1669.87        500.000        3265.70     
  1666.67        500.000        3266.83     
  1663.46        500.000        3267.94     
  1660.26        500.000        3269.03     
  1657.05        500.000        3270.11     
  1653.85        500.000        3271.18     
  1650.64        500.000        3272.24     
  1647.44        500.000        3273.29     
  1644.23        500.000        3274.33     
  1641.03        500.000        3275.36     
  1637.82        500.000        3276.34     
  1634.62        500.000        3277.32     
  1631.41        500.000        3278.28     
  1628.21        500.000        3279.24     
  1625.00        500.000        3280.20     
  1621.79        500.000        3281.14     
  1618.59        500.000        3282.07     
  1615.38        500.000        3283.00     
  1612.18        500.000        3283.89     
  1608.97        500.000        3284.78     
  1605.77        500.000        3285.66     
  1602.56        500.000        3286.53     
  1599.36        500.000        3287.39     
  1596.15        500.000        3288.24     
  1592.95        500.000        3289.07     
  1589.74        500.000        3289.78     
  1586.54        500.000        3289.18     
  1583.33        500.000        3288.61     
  1580.13        500.000        3288.08     
  1576.92        500.000        3287.57     
  1573.72        500.000        3287.10     
  1570.51        500.000        3286.65     
  1567.31        500.000        3286.23     
  1564.10        500.000        3285.83     
  1560.90        500.000        3285.69     
  1557.69        500.000        3285.57     
  1554.49        500.000        3285.46     
  1551.28        500.000        3285.36     
  1548.08        500.000        3285.27     
  1544.87        500.000        3285.20     
  1541.67        500.000        3285.13     
  1538.46        500.000        3285.07     
  1535.26        500.000        3285.15     
  1532.05        500.000        3285.23     
  1528.85        500.000        3285.32     
  1525.64        500.000        3285.42     
  1522.44        500.000        3285.52     
  1519.23        500.000        3285.62     
  1516.03        500.000        3285.73     
  1512.82        500.000        3285.85     
  1509.62        500.000        3286.02     
  1506.41        500.000        3286.21     
  1503.21        500.000        3286.39     
  1500.00        500.000        3286.58     
  1496.79        500.000        3286.77     
  1493.59        500.000        3286.97     
  1490.38        500.000        3287.17     
  1487.18        500.000        3287.37     
  1483.97        500.000        3287.60     
  1480.77        500.000        3287.84     
  1477.56        500.000        3288.08     
  1474.36        500.000        3288.32     
  1471.15        500.000        3288.57     
  1467.95        500.000        3288.82     
  1464.74        500.000        3289.07     
  1461.54        500.000        3289.32     
  1458.33        500.000        3289.59     
  1455.13        500.000        3289.86     
  1451.92        500.000        3290.14     
  1448.72        500.000        3290.42     
  1445.51        500.000        3290.70     
  1442.31        500.000        3291.06     
  1439.10        500.000        3291.43     
  1435.90        500.000        3291.80     
  1432.69        500.000        3292.22     
  1429.49        500.000        3292.64     
  1426.28        500.000        3293.06     
  1423.08        500.000        3293.48     
  1419.87        500.000        3293.89     
  1416.67        500.000        3294.31     
  1413.46        500.000        3294.73     
  1410.26        500.000        3295.14     
  1407.05        500.000        3295.58     
  1403.85        500.000        3296.02     
  1400.64        500.000        3296.46     
  1397.44        500.000        3296.90     
  1394.23        500.000        3297.01     
  1391.03        500.000        3296.28     
  1387.82        500.000        3296.71     
  1384.62        500.000        3294.94     
  1381.41        500.000        3295.38     
  1378.21        500.000        3295.81     
  1375.00        500.000        3296.24     
  1371.79        500.000        3296.67     
  1368.59        500.000        3297.11     
  1365.38        500.000        3297.54     
  1362.18        500.000        3297.97     
  1358.97        500.000        3291.47     
  1355.77        500.000        3291.90     
  1352.56        500.000        3292.32     
  1349.36        500.000        3292.75     
  1346.15        500.000        3293.18     
  1342.95        500.000        3293.60     
  1339.74        500.000        3294.03     
  1336.54        500.000        3294.46     
  1333.33        500.000        3289.66     
  1330.13        500.000        3290.08     
  1326.92        500.000        3290.51     
  1323.72        500.000        3290.93     
  1320.51        500.000        3291.35     
  1317.31        500.000        3291.77     
  1314.10        500.000        3292.19     
  1310.90        500.000        3292.62     
  1307.69        500.000        3288.75     
  1304.49        500.000        3289.17     
  1301.28        500.000        3288.62     
  1298.08        500.000        3285.11     
  1294.87        500.000        3241.42     
  1291.67        500.000        3241.83     
  1288.46        500.000        3242.23     
  1285.26        500.000        3242.64     
  1282.05        500.000        3242.78     
  1278.85        500.000        3243.18     
  1275.64        500.000        3243.59     
  1272.44        500.000        3243.99     
  1269.23        500.000        3244.39     
  1266.03        500.000        3244.80     
  1262.82        500.000        3245.20     
  1259.62        500.000        3245.60     
  1256.41        500.000        3245.50     
  1253.21        500.000        3245.90     
  1250.00        500.000        3246.30     
  1246.79        500.000        3246.70     
  1243.59        500.000        3247.11     
  1240.38        500.000        3247.51     
  1237.18        500.000        3247.91     
  1233.97        500.000        3248.31     
  1230.77        500.000        3248.24     
  1227.56        500.000        3248.64     
  1224.36        500.000        3249.04     
  1221.15        500.000        3249.44     
  1217.95        500.000        3249.84     
  1214.74        500.000        3250.24     
  1211.54        500.000        3250.64     
  1208.33        500.000        3251.04     
  1205.13        500.000        3251.01     
  1201.92        500.000        3251.40     
  1198.72        500.000        3251.80     
  1195.51        500.000        3252.20     
  1192.31        500.000        3252.60     
  1189.10        500.000        3252.99     
  1185.90        500.000        3253.39     
  1182.69        500.000        3253.79     
  1179.49        500.000        3253.79     
  1176.28        500.000        3254.19     
  1173.08        500.000        3254.58     
  1169.87        500.000        3254.98     
  1166.67        500.000        3255.37     
  1163.46        500.000        3255.77     
  1160.26        500.000        3256.16     
  1157.05        500.000        3256.56     
  1153.85        500.000        3256.60     
  1150.64        500.000        3256.99     
  1147.44        500.000        3257.38     
  1144.23        500.000        3257.78     
  1141.03        500.000        3258.17     
  1137.82        500.000        3258.56     
  1134.62        500.000        3258.95     
  1131.41        500.000        3259.35     
  1128.21        500.000        3259.42     
  1125.00        500.000        3259.81     
  1121.79        500.000        3260.20     
  1118.59        500.000        3260.60     
  1115.38        500.000        3260.99     
  1112.18        500.000        3261.38     
  1108.97        500.000        3261.77     
  1105.77        500.000        3262.16     
  1102.56        500.000        3262.27     
  1099.36        500.000        3262.65     
  1096.15        500.000        3263.04     
  1092.95        500.000        3263.43     
  1089.74        500.000        3263.70     
  1086.54        500.000        3264.08     
  1083.33        500.000        3264.41     
  1080.13        500.000        3264.77     
  1076.92        500.000        3266.82     
  1073.72        500.000        3267.21     
  1070.51        500.000        3267.60     
  1067.31        500.000        3267.98     
  1064.10        500.000        3268.37     
  1060.90        500.000        3268.76     
  1057.69        500.000        3269.14     
  1054.49        500.000        3269.53     
  1051.28        500.000        3269.71     
  1048.08        500.000        3268.39     
  1044.87        500.000        3270.47     
  1041.67        500.000        3269.14     
  1038.46        500.000        3269.51     
  1035.26        500.000        3269.88     
  1032.05        500.000        3270.24     
  1028.85        500.000        3270.63     
  1025.64        500.000        3270.98     
  1022.44        500.000        3271.36     
  1019.23        500.000        3271.75     
  1016.03        500.000        3272.14     
  1012.82        500.000        3272.44     
  1009.62        500.000        3274.52     
  1006.41        500.000        3274.89     
  1003.21        500.000        3275.28     
  1000.00        500.000        3275.63     
