|6.6.6
Archiving\03_Data\fracLP/QFM_m3/EETA/EETA_6.tab                           
           1
T(K)    
  0.000000000000000E+000
  0.000000000000000E+000
           0
           3
T(K)           P(bar)         rho,kg/m3     
  2000.00        500.000        3616.67     
  1997.49        500.000        3617.05     
  1994.99        500.000        3617.43     
  1992.48        500.000        3617.81     
  1989.97        500.000        3618.20     
  1987.47        500.000        3618.58     
  1984.96        500.000        3618.96     
  1982.46        500.000        3619.34     
  1979.95        500.000        3619.72     
  1977.44        500.000        3620.10     
  1974.94        500.000        3620.48     
  1972.43        500.000        3620.86     
  1969.92        500.000        3621.24     
  1967.42        500.000        3621.62     
  1964.91        500.000        3622.00     
  1962.41        500.000        3622.38     
  1959.90        500.000        3622.75     
  1957.39        500.000        3623.13     
  1954.89        500.000        3623.51     
  1952.38        500.000        3623.89     
  1949.87        500.000        3624.27     
  1947.37        500.000        3624.65     
  1944.86        500.000        3625.03     
  1942.36        500.000        3625.40     
  1939.85        500.000        3625.78     
  1937.34        500.000        3626.16     
  1934.84        500.000        3626.54     
  1932.33        500.000        3626.92     
  1929.82        500.000        3627.29     
  1927.32        500.000        3627.67     
  1924.81        500.000        3628.05     
  1922.31        500.000        3628.43     
  1919.80        500.000        3628.80     
  1917.29        500.000        3629.18     
  1914.79        500.000        3629.56     
  1912.28        500.000        3629.93     
  1909.77        500.000        3630.31     
  1907.27        500.000        3630.69     
  1904.76        500.000        3631.06     
  1902.26        500.000        3631.44     
  1899.75        500.000        3631.81     
  1897.24        500.000        3632.19     
  1894.74        500.000        3632.57     
  1892.23        500.000        3632.94     
  1889.72        500.000        3633.32     
  1887.22        500.000        3633.69     
  1884.71        500.000        3634.07     
  1882.21        500.000        3634.44     
  1879.70        500.000        3634.82     
  1877.19        500.000        3635.19     
  1874.69        500.000        3635.57     
  1872.18        500.000        3635.94     
  1869.67        500.000        3636.31     
  1867.17        500.000        3636.69     
  1864.66        500.000        3637.06     
  1862.16        500.000        3637.44     
  1859.65        500.000        3637.81     
  1857.14        500.000        3638.18     
  1854.64        500.000        3638.56     
  1852.13        500.000        3638.93     
  1849.62        500.000        3639.31     
  1847.12        500.000        3639.68     
  1844.61        500.000        3640.05     
  1842.11        500.000        3640.42     
  1839.60        500.000        3640.80     
  1837.09        500.000        3641.17     
  1834.59        500.000        3641.54     
  1832.08        500.000        3641.92     
  1829.57        500.000        3642.29     
  1827.07        500.000        3642.66     
  1824.56        500.000        3643.03     
  1822.06        500.000        3643.40     
  1819.55        500.000        3643.78     
  1817.04        500.000        3644.15     
  1814.54        500.000        3644.52     
  1812.03        500.000        3644.89     
  1809.52        500.000        3645.26     
  1807.02        500.000        3645.63     
  1804.51        500.000        3646.00     
  1802.01        500.000        3646.37     
  1799.50        500.000        3646.75     
  1796.99        500.000        3647.12     
  1794.49        500.000        3647.49     
  1791.98        500.000        3647.86     
  1789.47        500.000        3648.23     
  1786.97        500.000        3648.60     
  1784.46        500.000        3648.97     
  1781.95        500.000        3649.34     
  1779.45        500.000        3649.71     
  1776.94        500.000        3650.08     
  1774.44        500.000        3650.45     
  1771.93        500.000        3650.82     
  1769.42        500.000        3651.18     
  1766.92        500.000        3651.55     
  1764.41        500.000        3651.92     
  1761.90        500.000        3652.29     
  1759.40        500.000        3652.66     
  1756.89        500.000        3653.03     
  1754.39        500.000        3653.40     
  1751.88        500.000        3653.77     
  1749.37        500.000        3654.13     
  1746.87        500.000        3654.50     
  1744.36        500.000        3654.87     
  1741.85        500.000        3655.24     
  1739.35        500.000        3655.61     
  1736.84        500.000        3655.97     
  1734.34        500.000        3656.34     
  1731.83        500.000        3656.71     
  1729.32        500.000        3657.08     
  1726.82        500.000        3657.44     
  1724.31        500.000        3657.81     
  1721.80        500.000        3658.18     
  1719.30        500.000        3658.54     
  1716.79        500.000        3658.91     
  1714.29        500.000        3659.28     
  1711.78        500.000        3659.64     
  1709.27        500.000        3660.01     
  1706.77        500.000        3660.38     
  1704.26        500.000        3660.74     
  1701.75        500.000        3661.11     
  1699.25        500.000        3661.47     
  1696.74        500.000        3661.84     
  1694.24        500.000        3662.20     
  1691.73        500.000        3662.57     
  1689.22        500.000        3662.94     
  1686.72        500.000        3663.30     
  1684.21        500.000        3663.67     
  1681.70        500.000        3664.03     
  1679.20        500.000        3664.40     
  1676.69        500.000        3664.76     
  1674.19        500.000        3665.12     
  1671.68        500.000        3665.49     
  1669.17        500.000        3665.85     
  1666.67        500.000        3666.22     
  1664.16        500.000        3666.58     
  1661.65        500.000        3666.95     
  1659.15        500.000        3667.31     
  1656.64        500.000        3667.67     
  1654.14        500.000        3668.04     
  1651.63        500.000        3668.40     
  1649.12        500.000        3668.76     
  1646.62        500.000        3669.13     
  1644.11        500.000        3669.49     
  1641.60        500.000        3673.15     
  1639.10        500.000        3678.76     
  1636.59        500.000        3679.07     
  1634.09        500.000        3679.35     
  1631.58        500.000        3679.66     
  1629.07        500.000        3679.92     
  1626.57        500.000        3680.22     
  1624.06        500.000        3680.51     
  1621.55        500.000        3645.68     
  1619.05        500.000        4508.38     
  1616.54        500.000        4508.92     
  1614.04        500.000        4508.25     
  1611.53        500.000        3395.68     
  1609.02        500.000        4509.23     
  1606.52        500.000        3409.41     
  1604.01        500.000        3429.36     
  1601.50        500.000        3395.05     
  1599.00        500.000        3402.36     
  1596.49        500.000        3413.79     
  1593.98        500.000        3415.45     
  1591.48        500.000        3417.34     
  1588.97        500.000        3418.16     
  1586.47        500.000        3420.94     
  1583.96        500.000        3422.17     
  1581.45        500.000        3424.44     
  1578.95        500.000        3426.68     
  1576.44        500.000        3429.70     
  1573.93        500.000        3429.98     
  1571.43        500.000        3431.38     
  1568.92        500.000        3434.25     
  1566.42        500.000        3436.56     
  1563.91        500.000        3437.43     
  1561.40        500.000        3439.11     
  1558.90        500.000        3440.73     
  1556.39        500.000        3438.89     
  1553.88        500.000        3444.80     
  1551.38        500.000        3447.77     
  1548.87        500.000        3449.53     
  1546.37        500.000        3450.97     
  1543.86        500.000        3451.57     
  1541.35        500.000        3453.87     
  1538.85        500.000        3456.43     
  1536.34        500.000        3397.70     
  1533.83        500.000        3292.03     
  1531.33        500.000        3293.52     
  1528.82        500.000        3294.46     
  1526.32        500.000        3295.04     
  1523.81        500.000        3295.96     
  1521.30        500.000        3297.26     
  1518.80        500.000        3298.43     
  1516.29        500.000        3301.30     
  1513.78        500.000        3300.46     
  1511.28        500.000        3308.87     
  1508.77        500.000        3302.41     
  1506.27        500.000        3303.86     
  1503.76        500.000        3305.81     
  1501.25        500.000        3306.50     
  1498.75        500.000        3307.38     
  1496.24        500.000        3294.10     
  1493.73        500.000        3294.95     
  1491.23        500.000        3297.31     
  1488.72        500.000        3298.93     
  1486.22        500.000        3302.20     
  1483.71        500.000        3303.12     
  1481.20        500.000        3303.29     
  1478.70        500.000        3304.92     
  1476.19        500.000        3306.67     
  1473.68        500.000        3307.84     
  1471.18        500.000        3309.80     
  1468.67        500.000        3311.25     
  1466.17        500.000        3293.60     
  1463.66        500.000        3291.29     
  1461.15        500.000        3293.58     
  1458.65        500.000        3297.92     
  1456.14        500.000        3300.79     
  1453.63        500.000        3303.10     
  1451.13        500.000        3305.46     
  1448.62        500.000        3307.55     
  1446.12        500.000        3310.06     
  1443.61        500.000        3312.23     
  1441.10        500.000        3314.57     
  1438.60        500.000        3316.90     
  1436.09        500.000        3319.52     
  1433.58        500.000        3321.75     
  1431.08        500.000        3323.91     
  1428.57        500.000        3326.50     
  1426.07        500.000        3329.10     
  1423.56        500.000        3331.24     
  1421.05        500.000        3333.78     
  1418.55        500.000        3336.22     
  1416.04        500.000        3338.83     
  1413.53        500.000        3341.11     
  1411.03        500.000        3343.80     
  1408.52        500.000        3246.05     
  1406.02        500.000        3152.90     
  1403.51        500.000        3155.84     
  1401.00        500.000        3159.42     
  1398.50        500.000        3162.51     
  1395.99        500.000        3165.76     
  1393.48        500.000        3169.03     
  1390.98        500.000        3172.13     
  1388.47        500.000        3175.42     
  1385.96        500.000        3178.69     
  1383.46        500.000        3182.02     
  1380.95        500.000        3185.29     
  1378.45        500.000        3188.36     
  1375.94        500.000        3191.37     
  1373.43        500.000        3195.23     
  1370.93        500.000        3198.49     
  1368.42        500.000        3201.65     
  1365.91        500.000        3205.23     
  1363.41        500.000        3208.60     
  1360.90        500.000        3212.11     
  1358.40        500.000        3215.27     
  1355.89        500.000        3218.80     
  1353.38        500.000        3222.17     
  1350.88        500.000        3225.65     
  1348.37        500.000        3229.09     
  1345.86        500.000        3232.62     
  1343.36        500.000        3248.12     
  1340.85        500.000        3277.48     
  1338.35        500.000        3278.45     
  1335.84        500.000        3284.78     
  1333.33        500.000        3287.88     
  1330.83        500.000        3288.88     
  1328.32        500.000        3294.13     
  1325.81        500.000        3296.94     
  1323.31        500.000        3299.35     
  1320.80        500.000        3302.25     
  1318.30        500.000        3304.53     
  1315.79        500.000        3307.05     
  1313.28        500.000        3310.13     
  1310.78        500.000        3332.62     
  1308.27        500.000        3352.65     
  1305.76        500.000        3354.07     
  1303.26        500.000        3357.10     
  1300.75        500.000        3358.94     
  1298.25        500.000        3361.11     
  1295.74        500.000        3362.48     
  1293.23        500.000        3364.24     
  1290.73        500.000        3365.79     
  1288.22        500.000        3367.09     
  1285.71        500.000        3368.31     
  1283.21        500.000        3369.82     
  1280.70        500.000        3370.62     
  1278.20        500.000        3371.74     
  1275.69        500.000        3372.90     
  1273.18        500.000        3373.78     
  1270.68        500.000        3374.20     
  1268.17        500.000        3374.75     
  1265.66        500.000        2866.16     
  1263.16        500.000        2860.66     
  1260.65        500.000        2863.45     
  1258.15        500.000        2865.60     
  1255.64        500.000        2867.70     
  1253.13        500.000        2869.35     
  1250.63        500.000        2870.87     
  1248.12        500.000        2872.05     
  1245.61        500.000        2872.93     
  1243.11        500.000        2873.71     
  1240.60        500.000        2874.57     
  1238.10        500.000        2874.71     
  1235.59        500.000        2875.03     
  1233.08        500.000        2875.14     
  1230.58        500.000        2874.69     
  1228.07        500.000        2876.43     
  1225.56        500.000        2875.85     
  1223.06        500.000        2875.61     
  1220.55        500.000        2875.48     
  1218.05        500.000        2874.06     
  1215.54        500.000        2873.97     
  1213.03        500.000        2693.65     
  1210.53        500.000        2687.71     
  1208.02        500.000        2685.68     
  1205.51        500.000        2686.96     
  1203.01        500.000        2679.20     
  1200.50        500.000        2678.45     
  1197.99        500.000        2654.67     
  1195.49        500.000        2675.69     
  1192.98        500.000        2687.73     
  1190.48        500.000        2635.80     
  1187.97        500.000        2634.12     
  1185.46        500.000        2634.24     
  1182.96        500.000        2634.38     
  1180.45        500.000        2632.76     
  1177.94        500.000        2632.80     
  1175.44        500.000        2632.84     
  1172.93        500.000        2632.88     
  1170.43        500.000        2632.92     
  1167.92        500.000        2632.96     
  1165.41        500.000        2633.01     
  1162.91        500.000        2633.05     
  1160.40        500.000        2633.10     
  1157.89        500.000        2633.15     
  1155.39        500.000        2633.20     
  1152.88        500.000        2633.26     
  1150.38        500.000        2633.31     
  1147.87        500.000        2633.37     
  1145.36        500.000        2633.43     
  1142.86        500.000        2633.49     
  1140.35        500.000        2633.55     
  1137.84        500.000        2633.61     
  1135.34        500.000        2633.67     
  1132.83        500.000        2633.74     
  1130.33        500.000        2633.80     
  1127.82        500.000        2633.86     
  1125.31        500.000        2633.93     
  1122.81        500.000        2634.00     
  1120.30        500.000        2634.07     
  1117.79        500.000        2634.14     
  1115.29        500.000        2634.21     
  1112.78        500.000        2634.28     
  1110.28        500.000        2634.36     
  1107.77        500.000        2634.43     
  1105.26        500.000        2634.51     
  1102.76        500.000        2634.58     
  1100.25        500.000        2634.71     
  1097.74        500.000        2634.78     
  1095.24        500.000        2634.86     
  1092.73        500.000        2634.94     
  1090.23        500.000        2635.01     
  1087.72        500.000        2635.09     
  1085.21        500.000        2635.17     
  1082.71        500.000        2635.25     
  1080.20        500.000        2635.33     
  1077.69        500.000        2635.40     
  1075.19        500.000        2635.48     
  1072.68        500.000        2635.52     
  1070.18        500.000        2635.60     
  1067.67        500.000        2635.68     
  1065.16        500.000        2635.80     
  1062.66        500.000        2635.89     
  1060.15        500.000        2635.97     
  1057.64        500.000        2636.05     
  1055.14        500.000        2636.10     
  1052.63        500.000        2636.19     
  1050.13        500.000        2636.27     
  1047.62        500.000        2636.36     
  1045.11        500.000        2636.44     
  1042.61        500.000        2636.52     
  1040.10        500.000        2636.61     
  1037.59        500.000        2636.70     
  1035.09        500.000        2636.78     
  1032.58        500.000        2636.87     
  1030.08        500.000        2636.96     
  1027.57        500.000        2637.04     
  1025.06        500.000        2637.13     
  1022.56        500.000        2637.22     
  1020.05        500.000        2637.30     
  1017.54        500.000        2637.39     
  1015.04        500.000        2637.48     
  1012.53        500.000        2637.57     
  1010.03        500.000        2637.66     
  1007.52        500.000        2637.75     
  1005.01        500.000        2637.83     
  1002.51        500.000        2637.92     
  1000.00        500.000        2638.01     
