|6.6.6
Archiving\03_Data\eq/QFM_m5/ALH/ALH_6.tab                                 
           1
T(K)    
  0.000000000000000E+000
  0.000000000000000E+000
           0
           3
T(K)           P(bar)         rho,kg/m3     
  2000.00        2500.00        6630.40     
  1996.79        2500.00        6633.14     
  1993.59        2500.00        6635.86     
  1990.38        2500.00        6638.58     
  1987.18        2500.00        6641.30     
  1983.97        2500.00        6644.00     
  1980.77        2500.00        6646.70     
  1977.56        2500.00        6649.39     
  1974.36        2500.00        6652.07     
  1971.15        2500.00        6654.71     
  1967.95        2500.00        6657.34     
  1964.74        2500.00        6659.96     
  1961.54        2500.00        6662.58     
  1958.33        2500.00        6665.19     
  1955.13        2500.00        6667.79     
  1951.92        2500.00        6670.39     
  1948.72        2500.00        6672.98     
  1945.51        2500.00        6675.52     
  1942.31        2500.00        6678.06     
  1939.10        2500.00        6680.60     
  1935.90        2500.00        6683.12     
  1932.69        2500.00        6685.65     
  1929.49        2500.00        6688.16     
  1926.28        2500.00        6690.67     
  1923.08        2500.00        6693.18     
  1919.87        2500.00        6695.64     
  1916.67        2500.00        6698.09     
  1913.46        2500.00        6700.55     
  1910.26        2500.00        6702.99     
  1907.05        2500.00        6705.43     
  1903.85        2500.00        6707.87     
  1900.64        2500.00        6710.29     
  1897.44        2500.00        6712.72     
  1894.23        2500.00        6715.11     
  1891.03        2500.00        6717.50     
  1887.82        2500.00        6719.88     
  1884.62        2500.00        6722.26     
  1881.41        2500.00        6724.62     
  1878.21        2500.00        6726.97     
  1875.00        2500.00        6729.32     
  1871.79        2500.00        6445.00     
  1868.59        2500.00        6110.82     
  1865.38        2500.00        5837.93     
  1862.18        2500.00        5610.90     
  1858.97        2500.00        5419.08     
  1855.77        2500.00        5254.88     
  1852.56        2500.00        5112.76     
  1849.36        2500.00        4988.54     
  1846.15        2500.00        4879.07     
  1842.95        2500.00        4786.81     
  1839.74        2500.00        4703.85     
  1836.54        2500.00        4628.87     
  1833.33        2500.00        4560.76     
  1830.13        2500.00        4498.63     
  1826.92        2500.00        4441.73     
  1823.72        2500.00        4389.43     
  1820.51        2500.00        4341.20     
  1817.31        2500.00        4297.87     
  1814.10        2500.00        4257.58     
  1810.90        2500.00        4220.02     
  1807.69        2500.00        4184.92     
  1804.49        2500.00        4152.05     
  1801.28        2500.00        4121.21     
  1798.08        2500.00        4092.22     
  1794.87        2500.00        4064.91     
  1791.67        2500.00        4039.33     
  1788.46        2500.00        4015.14     
  1785.26        2500.00        3992.24     
  1782.05        2500.00        3970.53     
  1778.85        2500.00        3950.00     
  1775.64        2500.00        3930.29     
  1772.44        2500.00        3911.68     
  1769.23        2500.00        3893.96     
  1766.03        2500.00        3876.84     
  1762.82        2500.00        3860.52     
  1759.62        2500.00        3844.95     
  1756.41        2500.00        3830.06     
  1753.21        2500.00        3815.82     
  1750.00        2500.00        3802.20     
  1746.79        2500.00        3789.14     
  1743.59        2500.00        3776.63     
  1740.38        2500.00        3764.31     
  1737.18        2500.00        3752.48     
  1733.97        2500.00        3741.13     
  1730.77        2500.00        3730.21     
  1727.56        2500.00        3719.72     
  1724.36        2500.00        3709.61     
  1721.15        2500.00        3699.89     
  1717.95        2500.00        3690.51     
  1714.74        2500.00        3681.24     
  1711.54        2500.00        3672.29     
  1708.33        2500.00        3663.67     
  1705.13        2500.00        3655.34     
  1701.92        2500.00        3647.30     
  1698.72        2500.00        3639.53     
  1695.51        2500.00        3632.01     
  1692.31        2500.00        3624.75     
  1689.10        2500.00        3617.60     
  1685.90        2500.00        3610.68     
  1682.69        2500.00        3603.98     
  1679.49        2500.00        3597.49     
  1676.28        2500.00        3591.20     
  1673.08        2500.00        3585.10     
  1669.87        2500.00        3579.18     
  1666.67        2500.00        3573.45     
  1663.46        2500.00        3567.91     
  1660.26        2500.00        3562.54     
  1657.05        2500.00        3557.32     
  1653.85        2500.00        3552.24     
  1650.64        2500.00        3547.31     
  1647.44        2500.00        3542.51     
  1644.23        2500.00        3537.84     
  1641.03        2500.00        3533.30     
  1637.82        2500.00        3528.89     
  1634.62        2500.00        3523.23     
  1631.41        2500.00        3515.96     
  1628.21        2500.00        3509.05     
  1625.00        2500.00        3503.20     
  1621.79        2500.00        3497.60     
  1618.59        2500.00        3492.24     
  1615.38        2500.00        3487.10     
  1612.18        2500.00        3483.11     
  1608.97        2500.00        3479.25     
  1605.77        2500.00        3475.52     
  1602.56        2500.00        3471.92     
  1599.36        2500.00        3468.43     
  1596.15        2500.00        3465.06     
  1592.95        2500.00        3461.80     
  1589.74        2500.00        3458.64     
  1586.54        2500.00        3456.23     
  1583.33        2500.00        3453.89     
  1580.13        2500.00        3451.61     
  1576.92        2500.00        3449.39     
  1573.72        2500.00        3447.22     
  1570.51        2500.00        3445.11     
  1567.31        2500.00        3443.05     
  1564.10        2500.00        3441.04     
  1560.90        2500.00        3439.42     
  1557.69        2500.00        3437.84     
  1554.49        2500.00        3436.28     
  1551.28        2500.00        3434.77     
  1548.08        2500.00        3433.28     
  1544.87        2500.00        3431.82     
  1541.67        2500.00        3430.40     
  1538.46        2500.00        3429.00     
  1535.26        2500.00        3427.77     
  1532.05        2500.00        3426.56     
  1528.85        2500.00        3425.37     
  1525.64        2500.00        3424.21     
  1522.44        2500.00        3422.50     
  1519.23        2500.00        3420.84     
  1516.03        2500.00        3419.27     
  1512.82        2500.00        3417.73     
  1509.62        2500.00        3416.32     
  1506.41        2500.00        3414.94     
  1503.21        2500.00        3413.64     
  1500.00        2500.00        3412.39     
  1496.79        2500.00        3412.85     
  1493.59        2500.00        3413.30     
  1490.38        2500.00        3413.76     
  1487.18        2500.00        3408.06     
  1483.97        2500.00        3408.52     
  1480.77        2500.00        3408.97     
  1477.56        2500.00        3409.43     
  1474.36        2500.00        3409.88     
  1471.15        2500.00        3410.34     
  1467.95        2500.00        3410.79     
  1464.74        2500.00        3411.25     
  1461.54        2500.00        3401.79     
  1458.33        2500.00        3402.24     
  1455.13        2500.00        3402.69     
  1451.92        2500.00        3403.14     
  1448.72        2500.00        3403.59     
  1445.51        2500.00        3404.04     
  1442.31        2500.00        3404.49     
  1439.10        2500.00        3404.94     
  1435.90        2500.00        3396.57     
  1432.69        2500.00        3397.02     
  1429.49        2500.00        3395.26     
  1426.28        2500.00        3394.80     
  1423.08        2500.00        3393.13     
  1419.87        2500.00        3393.58     
  1416.67        2500.00        3394.02     
  1413.46        2500.00        3394.46     
  1410.26        2500.00        3387.81     
  1407.05        2500.00        3388.25     
  1403.85        2500.00        3388.69     
  1400.64        2500.00        3389.13     
  1397.44        2500.00        3389.57     
  1394.23        2500.00        3390.01     
  1391.03        2500.00        3390.44     
  1387.82        2500.00        3390.88     
  1384.62        2500.00        3380.80     
  1381.41        2500.00        3381.23     
  1378.21        2500.00        3381.66     
  1375.00        2500.00        3382.10     
  1371.79        2500.00        3382.53     
  1368.59        2500.00        3382.96     
  1365.38        2500.00        3383.39     
  1362.18        2500.00        3383.82     
  1358.97        2500.00        3376.20     
  1355.77        2500.00        3376.63     
  1352.56        2500.00        3377.05     
  1349.36        2500.00        3377.48     
  1346.15        2500.00        3377.91     
  1342.95        2500.00        3378.33     
  1339.74        2500.00        3378.76     
  1336.54        2500.00        3379.18     
  1333.33        2500.00        3372.89     
  1330.13        2500.00        3373.32     
  1326.92        2500.00        3372.21     
  1323.72        2500.00        3371.90     
  1320.51        2500.00        3360.85     
  1317.31        2500.00        3361.27     
  1314.10        2500.00        3361.69     
  1310.90        2500.00        3362.10     
  1307.69        2500.00        3362.28     
  1304.49        2500.00        3362.69     
  1301.28        2500.00        3363.11     
  1298.08        2500.00        3363.53     
  1294.87        2500.00        3363.94     
  1291.67        2500.00        3364.36     
  1288.46        2500.00        3364.78     
  1285.26        2500.00        3365.19     
  1282.05        2500.00        3365.20     
  1278.85        2500.00        3365.61     
  1275.64        2500.00        3366.03     
  1272.44        2500.00        3366.44     
  1269.23        2500.00        3366.86     
  1266.03        2500.00        3367.27     
  1262.82        2500.00        3367.68     
  1259.62        2500.00        3368.10     
  1256.41        2500.00        3368.19     
  1253.21        2500.00        3368.60     
  1250.00        2500.00        3369.01     
  1246.79        2500.00        3369.43     
  1243.59        2500.00        3369.84     
  1240.38        2500.00        3370.25     
  1237.18        2500.00        3370.66     
  1233.97        2500.00        3371.07     
  1230.77        2500.00        3371.24     
  1227.56        2500.00        3371.65     
  1224.36        2500.00        3372.06     
  1221.15        2500.00        3372.47     
  1217.95        2500.00        3372.88     
  1214.74        2500.00        3373.29     
  1211.54        2500.00        3373.70     
  1208.33        2500.00        3374.11     
  1205.13        2500.00        3374.35     
  1201.92        2500.00        3374.76     
  1198.72        2500.00        3375.17     
  1195.51        2500.00        3375.58     
  1192.31        2500.00        3375.99     
  1189.10        2500.00        3376.40     
  1185.90        2500.00        3376.80     
  1182.69        2500.00        3377.21     
  1179.49        2500.00        3377.53     
  1176.28        2500.00        3377.93     
  1173.08        2500.00        3378.34     
  1169.87        2500.00        3378.75     
  1166.67        2500.00        3379.15     
  1163.46        2500.00        3379.56     
  1160.26        2500.00        3379.97     
  1157.05        2500.00        3380.37     
  1153.85        2500.00        3380.75     
  1150.64        2500.00        3381.16     
  1147.44        2500.00        3381.56     
  1144.23        2500.00        3381.97     
  1141.03        2500.00        3382.37     
  1137.82        2500.00        3382.78     
  1134.62        2500.00        3383.18     
  1131.41        2500.00        3383.59     
  1128.21        2500.00        3384.04     
  1125.00        2500.00        3384.44     
  1121.79        2500.00        3384.84     
  1118.59        2500.00        3385.25     
  1115.38        2500.00        3385.65     
  1112.18        2500.00        3386.05     
  1108.97        2500.00        3386.45     
  1105.77        2500.00        3386.86     
  1102.56        2500.00        3387.37     
  1099.36        2500.00        3387.77     
  1096.15        2500.00        3388.17     
  1092.95        2500.00        3388.58     
  1089.74        2500.00        3388.98     
  1086.54        2500.00        3389.38     
  1083.33        2500.00        3389.78     
  1080.13        2500.00        3390.18     
  1076.92        2500.00        3390.78     
  1073.72        2500.00        3391.21     
  1070.51        2500.00        3391.64     
  1067.31        2500.00        3392.04     
  1064.10        2500.00        3392.49     
  1060.90        2500.00        3392.89     
  1057.69        2500.00        3393.28     
  1054.49        2500.00        3393.68     
  1051.28        2500.00        3394.20     
  1048.08        2500.00        3394.60     
  1044.87        2500.00        3395.00     
  1041.67        2500.00        3395.39     
  1038.46        2500.00        3395.79     
  1035.26        2500.00        3396.19     
  1032.05        2500.00        3396.59     
  1028.85        2500.00        3396.99     
  1025.64        2500.00        3397.66     
  1022.44        2500.00        3398.06     
  1019.23        2500.00        3398.46     
  1016.03        2500.00        3398.85     
  1012.82        2500.00        3399.25     
  1009.62        2500.00        3399.65     
  1006.41        2500.00        3400.04     
  1003.21        2500.00        3400.44     
  1000.00        2500.00        3401.14     
