|6.6.6
Archiving\03_Data\eqLP/QFM_m1.75/Y98/Y98_6.tab                            
           1
T(K)    
  0.000000000000000E+000
  0.000000000000000E+000
           0
           3
T(K)           P(bar)         rho,kg/m3     
  2000.00        500.000        3600.76     
  1996.79        500.000        3601.24     
  1993.59        500.000        3601.72     
  1990.38        500.000        3602.21     
  1987.18        500.000        3602.69     
  1983.97        500.000        3603.17     
  1980.77        500.000        3603.66     
  1977.56        500.000        3604.14     
  1974.36        500.000        3604.62     
  1971.15        500.000        3605.11     
  1967.95        500.000        3605.59     
  1964.74        500.000        3606.07     
  1961.54        500.000        3606.55     
  1958.33        500.000        3607.03     
  1955.13        500.000        3607.51     
  1951.92        500.000        3608.00     
  1948.72        500.000        3608.48     
  1945.51        500.000        3608.96     
  1942.31        500.000        3609.44     
  1939.10        500.000        3609.92     
  1935.90        500.000        3610.40     
  1932.69        500.000        3610.88     
  1929.49        500.000        3611.36     
  1926.28        500.000        3611.84     
  1923.08        500.000        3612.32     
  1919.87        500.000        3612.79     
  1916.67        500.000        3613.27     
  1913.46        500.000        3613.75     
  1910.26        500.000        3614.23     
  1907.05        500.000        3614.71     
  1903.85        500.000        3615.19     
  1900.64        500.000        3615.66     
  1897.44        500.000        3616.14     
  1894.23        500.000        3616.62     
  1891.03        500.000        3617.09     
  1887.82        500.000        3617.57     
  1884.62        500.000        3618.05     
  1881.41        500.000        3618.52     
  1878.21        500.000        3619.00     
  1875.00        500.000        3619.48     
  1871.79        500.000        3619.95     
  1868.59        500.000        3620.43     
  1865.38        500.000        3620.90     
  1862.18        500.000        3621.38     
  1858.97        500.000        3621.85     
  1855.77        500.000        3622.33     
  1852.56        500.000        3622.80     
  1849.36        500.000        3623.28     
  1846.15        500.000        3623.75     
  1842.95        500.000        3624.22     
  1839.74        500.000        3624.70     
  1836.54        500.000        3625.17     
  1833.33        500.000        3625.64     
  1830.13        500.000        3626.12     
  1826.92        500.000        3626.59     
  1823.72        500.000        3627.06     
  1820.51        500.000        3627.54     
  1817.31        500.000        3628.01     
  1814.10        500.000        3628.48     
  1810.90        500.000        3628.95     
  1807.69        500.000        3629.42     
  1804.49        500.000        3629.89     
  1801.28        500.000        3630.37     
  1798.08        500.000        3630.84     
  1794.87        500.000        3631.31     
  1791.67        500.000        3631.78     
  1788.46        500.000        3632.25     
  1785.26        500.000        3632.72     
  1782.05        500.000        3633.19     
  1778.85        500.000        3633.66     
  1775.64        500.000        3634.13     
  1772.44        500.000        3634.60     
  1769.23        500.000        3635.07     
  1766.03        500.000        3635.54     
  1762.82        500.000        3636.00     
  1759.62        500.000        3636.47     
  1756.41        500.000        3636.94     
  1753.21        500.000        3637.41     
  1750.00        500.000        3637.88     
  1746.79        500.000        3638.34     
  1743.59        500.000        3638.81     
  1740.38        500.000        3639.28     
  1737.18        500.000        3639.75     
  1733.97        500.000        3640.21     
  1730.77        500.000        3640.68     
  1727.56        500.000        3641.15     
  1724.36        500.000        3641.61     
  1721.15        500.000        3642.08     
  1717.95        500.000        3642.54     
  1714.74        500.000        3643.01     
  1711.54        500.000        3643.48     
  1708.33        500.000        3643.94     
  1705.13        500.000        3644.41     
  1701.92        500.000        3644.87     
  1698.72        500.000        3645.34     
  1695.51        500.000        3645.80     
  1692.31        500.000        3646.26     
  1689.10        500.000        3647.37     
  1685.90        500.000        3660.45     
  1682.69        500.000        3673.00     
  1679.49        500.000        3685.20     
  1676.28        500.000        3696.91     
  1673.08        500.000        3674.60     
  1669.87        500.000        3562.16     
  1666.67        500.000        3564.78     
  1663.46        500.000        3549.67     
  1660.26        500.000        3537.42     
  1657.05        500.000        3527.32     
  1653.85        500.000        3518.86     
  1650.64        500.000        3511.68     
  1647.44        500.000        3505.54     
  1644.23        500.000        3500.22     
  1641.03        500.000        3495.60     
  1637.82        500.000        3475.71     
  1634.62        500.000        3461.53     
  1631.41        500.000        3450.96     
  1628.21        500.000        3442.81     
  1625.00        500.000        3436.37     
  1621.79        500.000        3431.16     
  1618.59        500.000        3426.90     
  1615.38        500.000        3423.35     
  1612.18        500.000        3420.97     
  1608.97        500.000        3419.04     
  1605.77        500.000        3417.44     
  1602.56        500.000        3416.13     
  1599.36        500.000        3415.03     
  1596.15        500.000        3414.12     
  1592.95        500.000        3413.37     
  1589.74        500.000        3412.74     
  1586.54        500.000        3412.95     
  1583.33        500.000        3413.19     
  1580.13        500.000        3413.44     
  1576.92        500.000        3413.71     
  1573.72        500.000        3410.24     
  1570.51        500.000        3397.98     
  1567.31        500.000        3388.48     
  1564.10        500.000        3380.39     
  1560.90        500.000        3374.71     
  1557.69        500.000        3369.71     
  1554.49        500.000        3365.28     
  1551.28        500.000        3361.34     
  1548.08        500.000        3357.81     
  1544.87        500.000        3354.64     
  1541.67        500.000        3351.79     
  1538.46        500.000        3349.21     
  1535.26        500.000        3347.67     
  1532.05        500.000        3346.27     
  1528.85        500.000        3344.98     
  1525.64        500.000        3343.79     
  1522.44        500.000        3342.71     
  1519.23        500.000        3341.71     
  1516.03        500.000        3340.80     
  1512.82        500.000        3339.96     
  1509.62        500.000        3339.43     
  1506.41        500.000        3338.95     
  1503.21        500.000        3338.51     
  1500.00        500.000        3338.11     
  1496.79        500.000        3337.84     
  1493.59        500.000        3337.60     
  1490.38        500.000        3337.42     
  1487.18        500.000        3337.70     
  1483.97        500.000        3338.02     
  1480.77        500.000        3338.35     
  1477.56        500.000        3338.68     
  1474.36        500.000        3339.02     
  1471.15        500.000        3339.32     
  1467.95        500.000        3339.49     
  1464.74        500.000        3339.36     
  1461.54        500.000        3339.32     
  1458.33        500.000        3339.77     
  1455.13        500.000        3340.22     
  1451.92        500.000        3340.67     
  1448.72        500.000        3341.11     
  1445.51        500.000        3341.56     
  1442.31        500.000        3342.01     
  1439.10        500.000        3342.46     
  1435.90        500.000        3342.57     
  1432.69        500.000        3343.20     
  1429.49        500.000        3337.44     
  1426.28        500.000        3332.16     
  1423.08        500.000        3327.94     
  1419.87        500.000        3328.38     
  1416.67        500.000        3328.82     
  1413.46        500.000        3329.25     
  1410.26        500.000        3316.86     
  1407.05        500.000        3317.28     
  1403.85        500.000        3317.71     
  1400.64        500.000        3318.14     
  1397.44        500.000        3318.57     
  1394.23        500.000        3318.99     
  1391.03        500.000        3319.42     
  1387.82        500.000        3319.84     
  1384.62        500.000        3305.36     
  1381.41        500.000        3305.77     
  1378.21        500.000        3306.19     
  1375.00        500.000        3306.61     
  1371.79        500.000        3307.03     
  1368.59        500.000        3307.44     
  1365.38        500.000        3307.86     
  1362.18        500.000        3308.28     
  1358.97        500.000        3298.09     
  1355.77        500.000        3298.50     
  1352.56        500.000        3298.92     
  1349.36        500.000        3299.33     
  1346.15        500.000        3299.74     
  1342.95        500.000        3300.15     
  1339.74        500.000        3300.55     
  1336.54        500.000        3300.96     
  1333.33        500.000        3292.40     
  1330.13        500.000        3292.80     
  1326.92        500.000        3293.21     
  1323.72        500.000        3293.61     
  1320.51        500.000        3289.94     
  1317.31        500.000        3289.76     
  1314.10        500.000        3290.06     
  1310.90        500.000        3290.46     
  1307.69        500.000        3290.65     
  1304.49        500.000        3291.05     
  1301.28        500.000        3291.45     
  1298.08        500.000        3291.85     
  1294.87        500.000        3292.25     
  1291.67        500.000        3292.65     
  1288.46        500.000        3293.05     
  1285.26        500.000        3293.45     
  1282.05        500.000        3293.09     
  1278.85        500.000        3293.49     
  1275.64        500.000        3293.88     
  1272.44        500.000        3294.28     
  1269.23        500.000        3294.68     
  1266.03        500.000        3295.07     
  1262.82        500.000        3295.47     
  1259.62        500.000        3295.87     
  1256.41        500.000        3295.56     
  1253.21        500.000        3295.95     
  1250.00        500.000        3296.35     
  1246.79        500.000        3296.74     
  1243.59        500.000        3297.14     
  1240.38        500.000        3297.53     
  1237.18        500.000        3297.92     
  1233.97        500.000        3298.32     
  1230.77        500.000        3298.06     
  1227.56        500.000        3298.45     
  1224.36        500.000        3298.84     
  1221.15        500.000        3299.23     
  1217.95        500.000        3299.62     
  1214.74        500.000        3300.01     
  1211.54        500.000        3300.41     
  1208.33        500.000        3300.80     
  1205.13        500.000        3300.58     
  1201.92        500.000        3300.97     
  1198.72        500.000        3301.36     
  1195.51        500.000        3301.75     
  1192.31        500.000        3302.14     
  1189.10        500.000        3302.53     
  1185.90        500.000        3302.92     
  1182.69        500.000        3303.30     
  1179.49        500.000        3303.13     
  1176.28        500.000        3303.51     
  1173.08        500.000        3303.90     
  1169.87        500.000        3304.29     
  1166.67        500.000        3304.67     
  1163.46        500.000        3305.06     
  1160.26        500.000        3305.45     
  1157.05        500.000        3305.83     
  1153.85        500.000        3305.70     
  1150.64        500.000        3306.09     
  1147.44        500.000        3306.47     
  1144.23        500.000        3306.85     
  1141.03        500.000        3307.24     
  1137.82        500.000        3307.62     
  1134.62        500.000        3308.01     
  1131.41        500.000        3308.39     
  1128.21        500.000        3308.29     
  1125.00        500.000        3308.67     
  1121.79        500.000        3309.05     
  1118.59        500.000        3309.44     
  1115.38        500.000        3309.82     
  1112.18        500.000        3310.20     
  1108.97        500.000        3310.58     
  1105.77        500.000        3310.96     
  1102.56        500.000        3310.90     
  1099.36        500.000        3311.28     
  1096.15        500.000        3311.66     
  1092.95        500.000        3312.04     
  1089.74        500.000        3312.42     
  1086.54        500.000        3312.80     
  1083.33        500.000        3313.17     
  1080.13        500.000        3313.55     
  1076.92        500.000        3313.52     
  1073.72        500.000        3313.90     
  1070.51        500.000        3314.27     
  1067.31        500.000        3314.65     
  1064.10        500.000        3315.03     
  1060.90        500.000        3315.40     
  1057.69        500.000        3315.78     
  1054.49        500.000        3316.15     
  1051.28        500.000        3316.13     
  1048.08        500.000        3316.51     
  1044.87        500.000        3316.88     
  1041.67        500.000        3317.26     
  1038.46        500.000        3317.63     
  1035.26        500.000        3318.00     
  1032.05        500.000        3318.38     
  1028.85        500.000        3318.75     
  1025.64        500.000        3318.74     
  1022.44        500.000        3319.11     
  1019.23        500.000        3319.48     
  1016.03        500.000        3319.85     
  1012.82        500.000        3320.22     
  1009.62        500.000        3320.59     
  1006.41        500.000        3320.97     
  1003.21        500.000        3321.34     
  1000.00        500.000        3321.37     
