|6.6.6
Archiving\03_Data\DeqLP/QFM_m4.5/T13/T13_6.tab                        
           1
T(K)    
  0.000000000000000E+000
  0.000000000000000E+000
           0
           3
T(K)           P(bar)         rho,kg/m3     
  2000.00        500.000        7285.99     
  1996.79        500.000        7286.89     
  1993.59        500.000        7287.81     
  1990.38        500.000        7288.76     
  1987.18        500.000        7289.74     
  1983.97        500.000        7290.74     
  1980.77        500.000        7291.76     
  1977.56        500.000        7292.80     
  1974.36        500.000        7293.86     
  1971.15        500.000        7294.94     
  1967.95        500.000        7296.03     
  1964.74        500.000        7297.14     
  1961.54        500.000        7298.25     
  1958.33        500.000        7299.38     
  1955.13        500.000        7300.52     
  1951.92        500.000        7301.67     
  1948.72        500.000        7302.83     
  1945.51        500.000        7303.99     
  1942.31        500.000        7305.17     
  1939.10        500.000        7306.35     
  1935.90        500.000        7307.54     
  1932.69        500.000        6019.08     
  1929.49        500.000        4798.43     
  1926.28        500.000        4312.78     
  1923.08        500.000        4047.49     
  1919.87        500.000        3889.50     
  1916.67        500.000        3778.70     
  1913.46        500.000        3696.74     
  1910.26        500.000        3633.69     
  1907.05        500.000        3583.72     
  1903.85        500.000        3543.15     
  1900.64        500.000        3509.60     
  1897.44        500.000        3481.39     
  1894.23        500.000        3459.24     
  1891.03        500.000        3439.95     
  1887.82        500.000        3423.01     
  1884.62        500.000        3408.03     
  1881.41        500.000        3394.69     
  1878.21        500.000        3382.74     
  1875.00        500.000        3371.99     
  1871.79        500.000        3362.26     
  1868.59        500.000        3353.79     
  1865.38        500.000        3346.09     
  1862.18        500.000        3339.48     
  1858.97        500.000        3333.37     
  1855.77        500.000        3327.97     
  1852.56        500.000        3322.97     
  1849.36        500.000        3318.33     
  1846.15        500.000        3314.02     
  1842.95        500.000        3310.06     
  1839.74        500.000        3306.37     
  1836.54        500.000        3302.92     
  1833.33        500.000        3299.69     
  1830.13        500.000        3296.66     
  1826.92        500.000        3293.82     
  1823.72        500.000        3291.14     
  1820.51        500.000        3288.63     
  1817.31        500.000        3286.33     
  1814.10        500.000        3284.16     
  1810.90        500.000        3282.11     
  1807.69        500.000        3280.18     
  1804.49        500.000        3278.35     
  1801.28        500.000        3276.63     
  1798.08        500.000        3274.99     
  1794.87        500.000        3273.45     
  1791.67        500.000        3272.02     
  1788.46        500.000        3270.66     
  1785.26        500.000        3270.45     
  1782.05        500.000        3272.59     
  1778.85        500.000        3274.72     
  1775.64        500.000        3276.80     
  1772.44        500.000        3278.83     
  1769.23        500.000        3280.82     
  1766.03        500.000        3282.87     
  1762.82        500.000        3284.87     
  1759.62        500.000        3286.83     
  1756.41        500.000        3288.76     
  1753.21        500.000        3290.64     
  1750.00        500.000        3292.48     
  1746.79        500.000        3294.29     
  1743.59        500.000        3296.06     
  1740.38        500.000        3297.88     
  1737.18        500.000        3299.66     
  1733.97        500.000        3301.41     
  1730.77        500.000        3303.13     
  1727.56        500.000        3304.82     
  1724.36        500.000        3306.49     
  1721.15        500.000        3308.12     
  1717.95        500.000        3309.73     
  1714.74        500.000        3311.31     
  1711.54        500.000        3312.86     
  1708.33        500.000        3314.39     
  1705.13        500.000        3315.89     
  1701.92        500.000        3317.38     
  1698.72        500.000        3318.85     
  1695.51        500.000        3320.29     
  1692.31        500.000        3321.72     
  1689.10        500.000        3323.05     
  1685.90        500.000        3324.37     
  1682.69        500.000        3325.68     
  1679.49        500.000        3326.96     
  1676.28        500.000        3328.24     
  1673.08        500.000        3329.50     
  1669.87        500.000        3330.75     
  1666.67        500.000        3331.98     
  1663.46        500.000        3333.13     
  1660.26        500.000        3334.27     
  1657.05        500.000        3335.40     
  1653.85        500.000        3336.52     
  1650.64        500.000        3337.63     
  1647.44        500.000        3338.73     
  1644.23        500.000        3339.83     
  1641.03        500.000        3340.91     
  1637.82        500.000        3341.90     
  1634.62        500.000        3342.89     
  1631.41        500.000        3343.87     
  1628.21        500.000        3344.84     
  1625.00        500.000        3345.81     
  1621.79        500.000        3346.77     
  1618.59        500.000        3347.73     
  1615.38        500.000        3348.67     
  1612.18        500.000        3349.58     
  1608.97        500.000        3350.48     
  1605.77        500.000        3351.35     
  1602.56        500.000        3352.00     
  1599.36        500.000        3351.47     
  1596.15        500.000        3350.96     
  1592.95        500.000        3350.47     
  1589.74        500.000        3350.00     
  1586.54        500.000        3349.76     
  1583.33        500.000        3349.54     
  1580.13        500.000        3349.32     
  1576.92        500.000        3349.12     
  1573.72        500.000        3348.93     
  1570.51        500.000        3348.76     
  1567.31        500.000        3348.59     
  1564.10        500.000        3348.44     
  1560.90        500.000        3348.44     
  1557.69        500.000        3348.44     
  1554.49        500.000        3348.46     
  1551.28        500.000        3348.48     
  1548.08        500.000        3348.50     
  1544.87        500.000        3348.53     
  1541.67        500.000        3348.57     
  1538.46        500.000        3348.61     
  1535.26        500.000        3348.72     
  1532.05        500.000        3348.84     
  1528.85        500.000        3348.96     
  1525.64        500.000        3349.08     
  1522.44        500.000        3349.21     
  1519.23        500.000        3349.34     
  1516.03        500.000        3349.47     
  1512.82        500.000        3349.61     
  1509.62        500.000        3349.78     
  1506.41        500.000        3349.95     
  1503.21        500.000        3350.12     
  1500.00        500.000        3350.30     
  1496.79        500.000        3350.48     
  1493.59        500.000        3350.66     
  1490.38        500.000        3350.85     
  1487.18        500.000        3351.04     
  1483.97        500.000        3351.23     
  1480.77        500.000        3351.43     
  1477.56        500.000        3351.63     
  1474.36        500.000        3351.83     
  1471.15        500.000        3352.05     
  1467.95        500.000        3352.22     
  1464.74        500.000        3352.42     
  1461.54        500.000        3352.63     
  1458.33        500.000        3352.89     
  1455.13        500.000        3353.15     
  1451.92        500.000        3353.41     
  1448.72        500.000        3353.68     
  1445.51        500.000        3353.97     
  1442.31        500.000        3354.26     
  1439.10        500.000        3353.26     
  1435.90        500.000        3351.51     
  1432.69        500.000        3351.96     
  1429.49        500.000        3352.40     
  1426.28        500.000        3352.85     
  1423.08        500.000        3353.30     
  1419.87        500.000        3353.74     
  1416.67        500.000        3354.19     
  1413.46        500.000        3354.63     
  1410.26        500.000        3344.94     
  1407.05        500.000        3345.38     
  1403.85        500.000        3345.82     
  1400.64        500.000        3346.26     
  1397.44        500.000        3346.70     
  1394.23        500.000        3347.14     
  1391.03        500.000        3347.58     
  1387.82        500.000        3348.02     
  1384.62        500.000        3343.21     
  1381.41        500.000        3343.64     
  1378.21        500.000        3344.08     
  1375.00        500.000        3344.51     
  1371.79        500.000        3344.95     
  1368.59        500.000        3345.38     
  1365.38        500.000        3345.82     
  1362.18        500.000        3346.25     
  1358.97        500.000        3342.94     
  1355.77        500.000        3343.37     
  1352.56        500.000        3343.80     
  1349.36        500.000        3344.23     
  1346.15        500.000        3344.66     
  1342.95        500.000        3345.09     
  1339.74        500.000        3345.52     
  1336.54        500.000        3345.95     
  1333.33        500.000        3343.36     
  1330.13        500.000        3343.79     
  1326.92        500.000        3344.22     
  1323.72        500.000        3344.64     
  1320.51        500.000        3345.07     
  1317.31        500.000        3345.50     
  1314.10        500.000        3345.93     
  1310.90        500.000        3346.35     
  1307.69        500.000        3344.20     
  1304.49        500.000        3344.63     
  1301.28        500.000        3344.47     
  1298.08        500.000        3337.69     
  1294.87        500.000        3338.06     
  1291.67        500.000        3338.48     
  1288.46        500.000        3338.90     
  1285.26        500.000        3339.33     
  1282.05        500.000        3339.58     
  1278.85        500.000        3340.00     
  1275.64        500.000        3340.42     
  1272.44        500.000        3340.84     
  1269.23        500.000        3341.26     
  1266.03        500.000        3341.68     
  1262.82        500.000        3342.10     
  1259.62        500.000        3342.52     
  1256.41        500.000        3342.62     
  1253.21        500.000        3343.04     
  1250.00        500.000        3343.46     
  1246.79        500.000        3343.88     
  1243.59        500.000        3344.30     
  1240.38        500.000        3344.71     
  1237.18        500.000        3345.13     
  1233.97        500.000        3345.55     
  1230.77        500.000        3345.67     
  1227.56        500.000        3346.09     
  1224.36        500.000        3346.51     
  1221.15        500.000        3346.92     
  1217.95        500.000        3347.34     
  1214.74        500.000        3347.75     
  1211.54        500.000        3348.17     
  1208.33        500.000        3348.59     
  1205.13        500.000        3348.74     
  1201.92        500.000        3349.15     
  1198.72        500.000        3349.57     
  1195.51        500.000        3349.98     
  1192.31        500.000        3350.40     
  1189.10        500.000        3350.81     
  1185.90        500.000        3351.22     
  1182.69        500.000        3351.64     
  1179.49        500.000        3351.81     
  1176.28        500.000        3352.22     
  1173.08        500.000        3352.64     
  1169.87        500.000        3353.05     
  1166.67        500.000        3353.46     
  1163.46        500.000        3353.87     
  1160.26        500.000        3354.28     
  1157.05        500.000        3354.69     
  1153.85        500.000        3354.89     
  1150.64        500.000        3355.30     
  1147.44        500.000        3355.71     
  1144.23        500.000        3356.12     
  1141.03        500.000        3356.53     
  1137.82        500.000        3356.94     
  1134.62        500.000        3357.35     
  1131.41        500.000        3357.76     
  1128.21        500.000        3357.98     
  1125.00        500.000        3358.39     
  1121.79        500.000        3358.80     
  1118.59        500.000        3359.21     
  1115.38        500.000        3359.62     
  1112.18        500.000        3360.02     
  1108.97        500.000        3360.43     
  1105.77        500.000        3360.84     
  1102.56        500.000        3361.08     
  1099.36        500.000        3361.49     
  1096.15        500.000        3361.90     
  1092.95        500.000        3362.30     
  1089.74        500.000        3362.71     
  1086.54        500.000        3363.11     
  1083.33        500.000        3363.52     
  1080.13        500.000        3363.92     
  1076.92        500.000        3364.20     
  1073.72        500.000        3364.60     
  1070.51        500.000        3365.01     
  1067.31        500.000        3365.41     
  1064.10        500.000        3365.76     
  1060.90        500.000        3366.15     
  1057.69        500.000        3366.54     
  1054.49        500.000        3366.94     
  1051.28        500.000        3367.32     
  1048.08        500.000        3367.73     
  1044.87        500.000        3368.13     
  1041.67        500.000        3368.53     
  1038.46        500.000        3368.93     
  1035.26        500.000        3369.34     
  1032.05        500.000        3369.74     
  1028.85        500.000        3370.14     
  1025.64        500.000        3370.43     
  1022.44        500.000        3370.84     
  1019.23        500.000        3371.24     
  1016.03        500.000        3371.64     
  1012.82        500.000        3372.04     
  1009.62        500.000        3372.44     
  1006.41        500.000        3372.84     
  1003.21        500.000        3373.24     
  1000.00        500.000        3373.56     
