|6.6.6
Archiving\03_Data\eqLP/QFM_m3.75/Y98/Y98_6.tab                            
           1
T(K)    
  0.000000000000000E+000
  0.000000000000000E+000
           0
           3
T(K)           P(bar)         rho,kg/m3     
  2000.00        500.000        3600.76     
  1996.79        500.000        3601.24     
  1993.59        500.000        3601.72     
  1990.38        500.000        3602.21     
  1987.18        500.000        3602.69     
  1983.97        500.000        3603.17     
  1980.77        500.000        3603.66     
  1977.56        500.000        3604.14     
  1974.36        500.000        3604.62     
  1971.15        500.000        3605.11     
  1967.95        500.000        3605.59     
  1964.74        500.000        3606.07     
  1961.54        500.000        3606.55     
  1958.33        500.000        3607.03     
  1955.13        500.000        3607.51     
  1951.92        500.000        3608.00     
  1948.72        500.000        3608.48     
  1945.51        500.000        3608.96     
  1942.31        500.000        3609.44     
  1939.10        500.000        3609.92     
  1935.90        500.000        3610.40     
  1932.69        500.000        3610.88     
  1929.49        500.000        3611.36     
  1926.28        500.000        3611.84     
  1923.08        500.000        3612.32     
  1919.87        500.000        3612.79     
  1916.67        500.000        3613.27     
  1913.46        500.000        3613.75     
  1910.26        500.000        3614.23     
  1907.05        500.000        3614.71     
  1903.85        500.000        3615.19     
  1900.64        500.000        3615.66     
  1897.44        500.000        3616.14     
  1894.23        500.000        3616.62     
  1891.03        500.000        3617.09     
  1887.82        500.000        3617.57     
  1884.62        500.000        3618.05     
  1881.41        500.000        3618.52     
  1878.21        500.000        3619.00     
  1875.00        500.000        3619.48     
  1871.79        500.000        3619.95     
  1868.59        500.000        3620.43     
  1865.38        500.000        3620.90     
  1862.18        500.000        3621.38     
  1858.97        500.000        3621.85     
  1855.77        500.000        3622.33     
  1852.56        500.000        3622.80     
  1849.36        500.000        3623.28     
  1846.15        500.000        3623.75     
  1842.95        500.000        3624.22     
  1839.74        500.000        3624.70     
  1836.54        500.000        3625.17     
  1833.33        500.000        3625.64     
  1830.13        500.000        3626.12     
  1826.92        500.000        3626.59     
  1823.72        500.000        3627.06     
  1820.51        500.000        3627.54     
  1817.31        500.000        3628.01     
  1814.10        500.000        3628.48     
  1810.90        500.000        3628.95     
  1807.69        500.000        3629.42     
  1804.49        500.000        3629.89     
  1801.28        500.000        3630.37     
  1798.08        500.000        3630.84     
  1794.87        500.000        3631.31     
  1791.67        500.000        3631.78     
  1788.46        500.000        3632.25     
  1785.26        500.000        3632.72     
  1782.05        500.000        3633.19     
  1778.85        500.000        3633.66     
  1775.64        500.000        3634.13     
  1772.44        500.000        3634.60     
  1769.23        500.000        3635.07     
  1766.03        500.000        3635.54     
  1762.82        500.000        3636.00     
  1759.62        500.000        3636.47     
  1756.41        500.000        3636.94     
  1753.21        500.000        3637.41     
  1750.00        500.000        3637.88     
  1746.79        500.000        3638.34     
  1743.59        500.000        3638.81     
  1740.38        500.000        3639.28     
  1737.18        500.000        3639.75     
  1733.97        500.000        3640.21     
  1730.77        500.000        3640.68     
  1727.56        500.000        3641.15     
  1724.36        500.000        3641.61     
  1721.15        500.000        3642.08     
  1717.95        500.000        3642.54     
  1714.74        500.000        3643.01     
  1711.54        500.000        3643.48     
  1708.33        500.000        3643.94     
  1705.13        500.000        3644.41     
  1701.92        500.000        3644.87     
  1698.72        500.000        3645.34     
  1695.51        500.000        3645.80     
  1692.31        500.000        3646.26     
  1689.10        500.000        3646.73     
  1685.90        500.000        3647.88     
  1682.69        500.000        3648.34     
  1679.49        500.000        3662.71     
  1676.28        500.000        3663.17     
  1673.08        500.000        3663.64     
  1669.87        500.000        3664.10     
  1666.67        500.000        3715.35     
  1663.46        500.000        3725.58     
  1660.26        500.000        3735.57     
  1657.05        500.000        3745.31     
  1653.85        500.000        3754.83     
  1650.64        500.000        3763.96     
  1647.44        500.000        3579.87     
  1644.23        500.000        3510.10     
  1641.03        500.000        3474.04     
  1637.82        500.000        3453.88     
  1634.62        500.000        3440.32     
  1631.41        500.000        3431.14     
  1628.21        500.000        3425.49     
  1625.00        500.000        3422.15     
  1621.79        500.000        3419.47     
  1618.59        500.000        3417.30     
  1615.38        500.000        3415.52     
  1612.18        500.000        3415.07     
  1608.97        500.000        3414.73     
  1605.77        500.000        3414.48     
  1602.56        500.000        3414.32     
  1599.36        500.000        3414.22     
  1596.15        500.000        3414.18     
  1592.95        500.000        3414.19     
  1589.74        500.000        3414.24     
  1586.54        500.000        3414.96     
  1583.33        500.000        3415.65     
  1580.13        500.000        3416.33     
  1576.92        500.000        3416.99     
  1573.72        500.000        3414.24     
  1570.51        500.000        3403.59     
  1567.31        500.000        3394.95     
  1564.10        500.000        3387.47     
  1560.90        500.000        3382.12     
  1557.69        500.000        3377.35     
  1554.49        500.000        3373.08     
  1551.28        500.000        3369.25     
  1548.08        500.000        3365.78     
  1544.87        500.000        3362.65     
  1541.67        500.000        3359.80     
  1538.46        500.000        3357.21     
  1535.26        500.000        3355.59     
  1532.05        500.000        3354.09     
  1528.85        500.000        3352.72     
  1525.64        500.000        3351.45     
  1522.44        500.000        3350.27     
  1519.23        500.000        3349.19     
  1516.03        500.000        3348.18     
  1512.82        500.000        3347.25     
  1509.62        500.000        3346.62     
  1506.41        500.000        3346.03     
  1503.21        500.000        3345.50     
  1500.00        500.000        3345.00     
  1496.79        500.000        3344.56     
  1493.59        500.000        3344.40     
  1490.38        500.000        3344.60     
  1487.18        500.000        3344.81     
  1483.97        500.000        3344.95     
  1480.77        500.000        3345.10     
  1477.56        500.000        3345.14     
  1474.36        500.000        3344.43     
  1471.15        500.000        3343.85     
  1467.95        500.000        3343.43     
  1464.74        500.000        3343.88     
  1461.54        500.000        3343.19     
  1458.33        500.000        3343.64     
  1455.13        500.000        3343.44     
  1451.92        500.000        3343.72     
  1448.72        500.000        3344.12     
  1445.51        500.000        3344.57     
  1442.31        500.000        3345.17     
  1439.10        500.000        3345.69     
  1435.90        500.000        3341.51     
  1432.69        500.000        3341.95     
  1429.49        500.000        3342.39     
  1426.28        500.000        3342.84     
  1423.08        500.000        3343.28     
  1419.87        500.000        3343.72     
  1416.67        500.000        3344.17     
  1413.46        500.000        3344.61     
  1410.26        500.000        3311.58     
  1407.05        500.000        3312.01     
  1403.85        500.000        3312.43     
  1400.64        500.000        3312.85     
  1397.44        500.000        3313.28     
  1394.23        500.000        3313.70     
  1391.03        500.000        3314.12     
  1387.82        500.000        3314.55     
  1384.62        500.000        3300.87     
  1381.41        500.000        3301.29     
  1378.21        500.000        3301.70     
  1375.00        500.000        3302.12     
  1371.79        500.000        3302.53     
  1368.59        500.000        3302.95     
  1365.38        500.000        3303.36     
  1362.18        500.000        3303.78     
  1358.97        500.000        3294.04     
  1355.77        500.000        3294.45     
  1352.56        500.000        3294.86     
  1349.36        500.000        3295.27     
  1346.15        500.000        3295.68     
  1342.95        500.000        3296.09     
  1339.74        500.000        3296.49     
  1336.54        500.000        3296.90     
  1333.33        500.000        3288.82     
  1330.13        500.000        3289.22     
  1326.92        500.000        3289.62     
  1323.72        500.000        3290.02     
  1320.51        500.000        3286.62     
  1317.31        500.000        3286.72     
  1314.10        500.000        3287.05     
  1310.90        500.000        3287.45     
  1307.69        500.000        3287.70     
  1304.49        500.000        3288.10     
  1301.28        500.000        3288.50     
  1298.08        500.000        3288.90     
  1294.87        500.000        3289.30     
  1291.67        500.000        3289.70     
  1288.46        500.000        3290.09     
  1285.26        500.000        3290.49     
  1282.05        500.000        3290.36     
  1278.85        500.000        3290.75     
  1275.64        500.000        3291.15     
  1272.44        500.000        3291.55     
  1269.23        500.000        3291.94     
  1266.03        500.000        3292.34     
  1262.82        500.000        3292.73     
  1259.62        500.000        3293.13     
  1256.41        500.000        3293.03     
  1253.21        500.000        3293.42     
  1250.00        500.000        3293.82     
  1246.79        500.000        3294.21     
  1243.59        500.000        3294.60     
  1240.38        500.000        3295.00     
  1237.18        500.000        3295.39     
  1233.97        500.000        3295.78     
  1230.77        500.000        3295.73     
  1227.56        500.000        3296.12     
  1224.36        500.000        3296.51     
  1221.15        500.000        3296.90     
  1217.95        500.000        3297.29     
  1214.74        500.000        3297.68     
  1211.54        500.000        3298.07     
  1208.33        500.000        3298.46     
  1205.13        500.000        3298.42     
  1201.92        500.000        3298.81     
  1198.72        500.000        3299.20     
  1195.51        500.000        3299.59     
  1192.31        500.000        3299.98     
  1189.10        500.000        3300.36     
  1185.90        500.000        3300.75     
  1182.69        500.000        3301.14     
  1179.49        500.000        3301.14     
  1176.28        500.000        3301.53     
  1173.08        500.000        3301.92     
  1169.87        500.000        3302.30     
  1166.67        500.000        3302.69     
  1163.46        500.000        3303.07     
  1160.26        500.000        3303.46     
  1157.05        500.000        3303.84     
  1153.85        500.000        3303.86     
  1150.64        500.000        3304.25     
  1147.44        500.000        3304.63     
  1144.23        500.000        3305.01     
  1141.03        500.000        3305.40     
  1137.82        500.000        3305.78     
  1134.62        500.000        3306.16     
  1131.41        500.000        3306.55     
  1128.21        500.000        3306.60     
  1125.00        500.000        3306.98     
  1121.79        500.000        3307.36     
  1118.59        500.000        3307.74     
  1115.38        500.000        3308.12     
  1112.18        500.000        3308.50     
  1108.97        500.000        3308.88     
  1105.77        500.000        3309.26     
  1102.56        500.000        3309.34     
  1099.36        500.000        3309.72     
  1096.15        500.000        3310.10     
  1092.95        500.000        3310.48     
  1089.74        500.000        3310.85     
  1086.54        500.000        3311.23     
  1083.33        500.000        3311.61     
  1080.13        500.000        3311.99     
  1076.92        500.000        3312.06     
  1073.72        500.000        3312.44     
  1070.51        500.000        3312.81     
  1067.31        500.000        3313.19     
  1064.10        500.000        3313.57     
  1060.90        500.000        3313.94     
  1057.69        500.000        3314.32     
  1054.49        500.000        3314.69     
  1051.28        500.000        3314.80     
  1048.08        500.000        3315.17     
  1044.87        500.000        3315.55     
  1041.67        500.000        3315.92     
  1038.46        500.000        3316.29     
  1035.26        500.000        3316.67     
  1032.05        500.000        3317.04     
  1028.85        500.000        3317.41     
  1025.64        500.000        3317.50     
  1022.44        500.000        3317.87     
  1019.23        500.000        3318.25     
  1016.03        500.000        3318.62     
  1012.82        500.000        3318.99     
  1009.62        500.000        3319.36     
  1006.41        500.000        3319.73     
  1003.21        500.000        3320.10     
  1000.00        500.000        3320.23     
