|6.6.6
Archiving\03_Data\frac/QFM_m4.75/Y98/Y98_6.tab                            
           1
T(K)    
  0.000000000000000E+000
  0.000000000000000E+000
           0
           3
T(K)           P(bar)         rho,kg/m3     
  2000.00        2500.00        3611.47     
  1997.49        2500.00        3611.84     
  1994.99        2500.00        3612.22     
  1992.48        2500.00        3612.59     
  1989.97        2500.00        3612.97     
  1987.47        2500.00        3613.34     
  1984.96        2500.00        3613.72     
  1982.46        2500.00        3614.09     
  1979.95        2500.00        3614.46     
  1977.44        2500.00        3614.84     
  1974.94        2500.00        3615.21     
  1972.43        2500.00        3615.58     
  1969.92        2500.00        3615.96     
  1967.42        2500.00        3616.33     
  1964.91        2500.00        3616.70     
  1962.41        2500.00        3617.08     
  1959.90        2500.00        3617.45     
  1957.39        2500.00        3617.82     
  1954.89        2500.00        3618.20     
  1952.38        2500.00        3618.57     
  1949.87        2500.00        3618.94     
  1947.37        2500.00        3619.31     
  1944.86        2500.00        3619.69     
  1942.36        2500.00        3620.06     
  1939.85        2500.00        3620.43     
  1937.34        2500.00        3620.80     
  1934.84        2500.00        3621.17     
  1932.33        2500.00        3621.54     
  1929.82        2500.00        3621.92     
  1927.32        2500.00        3622.29     
  1924.81        2500.00        3622.66     
  1922.31        2500.00        3623.03     
  1919.80        2500.00        3623.40     
  1917.29        2500.00        3623.77     
  1914.79        2500.00        3624.14     
  1912.28        2500.00        3624.51     
  1909.77        2500.00        3624.88     
  1907.27        2500.00        3625.25     
  1904.76        2500.00        3625.62     
  1902.26        2500.00        3625.99     
  1899.75        2500.00        3626.36     
  1897.24        2500.00        3626.73     
  1894.74        2500.00        3627.10     
  1892.23        2500.00        3627.47     
  1889.72        2500.00        3627.84     
  1887.22        2500.00        3628.21     
  1884.71        2500.00        3628.58     
  1882.21        2500.00        3628.95     
  1879.70        2500.00        3629.32     
  1877.19        2500.00        3629.69     
  1874.69        2500.00        3630.05     
  1872.18        2500.00        3630.42     
  1869.67        2500.00        3630.79     
  1867.17        2500.00        3631.16     
  1864.66        2500.00        3631.53     
  1862.16        2500.00        3631.90     
  1859.65        2500.00        3632.26     
  1857.14        2500.00        3632.63     
  1854.64        2500.00        3633.00     
  1852.13        2500.00        3633.37     
  1849.62        2500.00        3633.73     
  1847.12        2500.00        3634.10     
  1844.61        2500.00        3634.47     
  1842.11        2500.00        3634.84     
  1839.60        2500.00        3635.20     
  1837.09        2500.00        3635.57     
  1834.59        2500.00        3635.94     
  1832.08        2500.00        3636.30     
  1829.57        2500.00        3636.67     
  1827.07        2500.00        3637.03     
  1824.56        2500.00        3637.40     
  1822.06        2500.00        3637.77     
  1819.55        2500.00        3638.13     
  1817.04        2500.00        3638.50     
  1814.54        2500.00        3638.86     
  1812.03        2500.00        3639.23     
  1809.52        2500.00        3639.59     
  1807.02        2500.00        3639.96     
  1804.51        2500.00        3640.32     
  1802.01        2500.00        3640.69     
  1799.50        2500.00        3641.05     
  1796.99        2500.00        3641.42     
  1794.49        2500.00        3641.78     
  1791.98        2500.00        3642.15     
  1789.47        2500.00        3642.51     
  1786.97        2500.00        3642.88     
  1784.46        2500.00        3643.24     
  1781.95        2500.00        3643.61     
  1779.45        2500.00        3643.97     
  1776.94        2500.00        3644.33     
  1774.44        2500.00        3644.70     
  1771.93        2500.00        3645.06     
  1769.42        2500.00        3645.42     
  1766.92        2500.00        3645.79     
  1764.41        2500.00        3646.15     
  1761.90        2500.00        3646.51     
  1759.40        2500.00        3646.88     
  1756.89        2500.00        3647.24     
  1754.39        2500.00        3647.60     
  1751.88        2500.00        3647.96     
  1749.37        2500.00        3648.33     
  1746.87        2500.00        3648.69     
  1744.36        2500.00        3649.05     
  1741.85        2500.00        3649.41     
  1739.35        2500.00        3649.78     
  1736.84        2500.00        3650.14     
  1734.34        2500.00        3650.50     
  1731.83        2500.00        3650.86     
  1729.32        2500.00        3651.22     
  1726.82        2500.00        3651.58     
  1724.31        2500.00        3651.94     
  1721.80        2500.00        3652.31     
  1719.30        2500.00        3652.67     
  1716.79        2500.00        3653.03     
  1714.29        2500.00        3653.39     
  1711.78        2500.00        3653.75     
  1709.27        2500.00        3654.11     
  1706.77        2500.00        3671.53     
  1704.26        2500.00        3703.78     
  1701.75        2500.00        3735.36     
  1699.25        2500.00        3767.11     
  1696.74        2500.00        3798.39     
  1694.24        2500.00        3823.44     
  1691.73        2500.00        3848.05     
  1689.22        2500.00        3872.19     
  1686.72        2500.00        3895.85     
  1684.21        2500.00        3919.11     
  1681.70        2500.00        3941.91     
  1679.20        2500.00        3964.30     
  1676.69        2500.00        3986.27     
  1674.19        2500.00        4007.85     
  1671.68        2500.00        4029.05     
  1669.17        2500.00        4049.95     
  1666.67        2500.00        4070.27     
  1664.16        2500.00        4090.35     
  1661.65        2500.00        4110.13     
  1659.15        2500.00        4129.56     
  1656.64        2500.00        4085.07     
  1654.14        2500.00        3376.41     
  1651.63        2500.00        3363.48     
  1649.12        2500.00        3366.62     
  1646.62        2500.00        3367.11     
  1644.11        2500.00        3369.03     
  1641.60        2500.00        3370.41     
  1639.10        2500.00        3371.55     
  1636.59        2500.00        3374.10     
  1634.09        2500.00        3375.30     
  1631.58        2500.00        3377.17     
  1629.07        2500.00        3378.61     
  1626.57        2500.00        3380.05     
  1624.06        2500.00        3289.22     
  1621.55        2500.00        3266.64     
  1619.05        2500.00        3267.70     
  1616.54        2500.00        3269.39     
  1614.04        2500.00        3270.00     
  1611.53        2500.00        3270.94     
  1609.02        2500.00        3272.39     
  1606.52        2500.00        3273.55     
  1604.01        2500.00        3273.28     
  1601.50        2500.00        3275.62     
  1599.00        2500.00        3276.49     
  1596.49        2500.00        3277.83     
  1593.98        2500.00        3278.99     
  1591.48        2500.00        3279.75     
  1588.97        2500.00        3280.73     
  1586.47        2500.00        3281.86     
  1583.96        2500.00        3282.76     
  1581.45        2500.00        3284.20     
  1578.95        2500.00        3285.29     
  1576.44        2500.00        3286.42     
  1573.93        2500.00        3288.06     
  1571.43        2500.00        3288.70     
  1568.92        2500.00        3289.80     
  1566.42        2500.00        3291.19     
  1563.91        2500.00        3291.75     
  1561.40        2500.00        3292.44     
  1558.90        2500.00        3293.49     
  1556.39        2500.00        3298.39     
  1553.88        2500.00        3292.11     
  1551.38        2500.00        3296.92     
  1548.87        2500.00        3296.48     
  1546.37        2500.00        3301.28     
  1543.86        2500.00        3299.05     
  1541.35        2500.00        3300.71     
  1538.85        2500.00        3300.22     
  1536.34        2500.00        3277.45     
  1533.83        2500.00        3277.68     
  1531.33        2500.00        3278.96     
  1528.82        2500.00        3281.24     
  1526.32        2500.00        3282.68     
  1523.81        2500.00        3284.98     
  1521.30        2500.00        3285.60     
  1518.80        2500.00        3287.55     
  1516.29        2500.00        3288.27     
  1513.78        2500.00        3289.82     
  1511.28        2500.00        3291.45     
  1508.77        2500.00        3293.31     
  1506.27        2500.00        3295.45     
  1503.76        2500.00        3296.34     
  1501.25        2500.00        3291.53     
  1498.75        2500.00        3279.29     
  1496.24        2500.00        3281.78     
  1493.73        2500.00        3301.93     
  1491.23        2500.00        3365.46     
  1488.72        2500.00        3366.01     
  1486.22        2500.00        3366.73     
  1483.71        2500.00        3367.62     
  1481.20        2500.00        3368.40     
  1478.70        2500.00        3369.09     
  1476.19        2500.00        3369.85     
  1473.68        2500.00        3370.56     
  1471.18        2500.00        3371.34     
  1468.67        2500.00        3372.05     
  1466.17        2500.00        3372.88     
  1463.66        2500.00        3373.61     
  1461.15        2500.00        3374.52     
  1458.65        2500.00        3375.06     
  1456.14        2500.00        3375.91     
  1453.63        2500.00        3376.69     
  1451.13        2500.00        3224.50     
  1448.62        2500.00        3216.23     
  1446.12        2500.00        3216.60     
  1443.61        2500.00        3217.11     
  1441.10        2500.00        3217.51     
  1438.60        2500.00        3217.83     
  1436.09        2500.00        3218.22     
  1433.58        2500.00        3218.90     
  1431.08        2500.00        3219.25     
  1428.57        2500.00        3219.64     
  1426.07        2500.00        3219.99     
  1423.56        2500.00        3220.37     
  1421.05        2500.00        3220.77     
  1418.55        2500.00        3221.17     
  1416.04        2500.00        3221.53     
  1413.53        2500.00        3221.93     
  1411.03        2500.00        3222.21     
  1408.52        2500.00        3222.54     
  1406.02        2500.00        3222.84     
  1403.51        2500.00        3223.17     
  1401.00        2500.00        3223.42     
  1398.50        2500.00        3223.66     
  1395.99        2500.00        3223.95     
  1393.48        2500.00        3224.13     
  1390.98        2500.00        3224.33     
  1388.47        2500.00        3224.49     
  1385.96        2500.00        3224.63     
  1383.46        2500.00        3224.69     
  1380.95        2500.00        3224.85     
  1378.45        2500.00        3224.87     
  1375.94        2500.00        3224.92     
  1373.43        2500.00        3224.92     
  1370.93        2500.00        3224.82     
  1368.42        2500.00        3224.78     
  1365.91        2500.00        3224.65     
  1363.41        2500.00        3224.50     
  1360.90        2500.00        3224.30     
  1358.40        2500.00        3223.91     
  1355.89        2500.00        3223.68     
  1353.38        2500.00        3223.30     
  1350.88        2500.00        3222.93     
  1348.37        2500.00        3222.44     
  1345.86        2500.00        3221.87     
  1343.36        2500.00        3221.35     
  1340.85        2500.00        3220.61     
  1338.35        2500.00        3219.89     
  1335.84        2500.00        3219.07     
  1333.33        2500.00        3218.16     
  1330.83        2500.00        3220.30     
  1328.32        2500.00        3222.55     
  1325.81        2500.00        3224.41     
  1323.31        2500.00        3226.71     
  1320.80        2500.00        3228.70     
  1318.30        2500.00        3230.68     
  1315.79        2500.00        3232.67     
  1313.28        2500.00        3234.69     
  1310.78        2500.00        3236.38     
  1308.27        2500.00        3238.03     
  1305.76        2500.00        3283.10     
  1303.26        2500.00        3284.88     
  1300.75        2500.00        2830.21     
  1298.25        2500.00        2833.89     
  1295.74        2500.00        2837.37     
  1293.23        2500.00        2840.97     
  1290.73        2500.00        2843.60     
  1288.22        2500.00        2845.78     
  1285.71        2500.00        2848.23     
  1283.21        2500.00        2849.65     
  1280.70        2500.00        2851.76     
  1278.20        2500.00        2853.13     
  1275.69        2500.00        2854.16     
  1273.18        2500.00        2855.53     
  1270.68        2500.00        2856.92     
  1268.17        2500.00        2857.51     
  1265.66        2500.00        2858.11     
  1263.16        2500.00        2858.81     
  1260.65        2500.00        2859.39     
  1258.15        2500.00        2841.74     
  1255.64        2500.00        2686.16     
  1253.13        2500.00        3280.91     
  1250.63        2500.00        2712.72     
  1248.12        2500.00        2697.80     
  1245.61        2500.00        3314.28     
  1243.11        2500.00        2694.50     
  1240.60        2500.00        2730.31     
  1238.10        2500.00        2753.61     
  1235.59        2500.00        2723.82     
  1233.08        2500.00        2693.78     
  1230.58        2500.00        2646.67     
  1228.07        2500.00        2700.47     
  1225.56        2500.00        2700.58     
  1223.06        2500.00        2707.75     
  1220.55        2500.00        2700.70     
  1218.05        2500.00        2700.83     
  1215.54        2500.00        2700.96     
  1213.03        2500.00        2701.07     
  1210.53        2500.00        2701.19     
  1208.02        2500.00        2701.30     
  1205.51        2500.00        2701.41     
  1203.01        2500.00        2701.53     
  1200.50        2500.00        2701.64     
  1197.99        2500.00        2701.76     
  1195.49        2500.00        2701.87     
  1192.98        2500.00        2701.99     
  1190.48        2500.00        2702.10     
  1187.97        2500.00        2702.22     
  1185.46        2500.00        2702.33     
  1182.96        2500.00        2702.45     
  1180.45        2500.00        2702.56     
  1177.94        2500.00        2702.68     
  1175.44        2500.00        2702.80     
  1172.93        2500.00        2710.82     
  1170.43        2500.00        2710.95     
  1167.92        2500.00        2711.09     
  1165.41        2500.00        2711.22     
  1162.91        2500.00        2711.36     
  1160.40        2500.00        2711.49     
  1157.89        2500.00        2711.63     
  1155.39        2500.00        2711.76     
  1152.88        2500.00        2711.90     
  1150.38        2500.00        2712.04     
  1147.87        2500.00        2712.17     
  1145.36        2500.00        2712.31     
  1142.86        2500.00        2712.44     
  1140.35        2500.00        2712.58     
  1137.84        2500.00        2712.72     
  1135.34        2500.00        2712.85     
  1132.83        2500.00        2712.99     
  1130.33        2500.00        2713.13     
  1127.82        2500.00        2713.26     
  1125.31        2500.00        2713.40     
  1122.81        2500.00        2713.53     
  1120.30        2500.00        2713.67     
  1117.79        2500.00        2713.80     
  1115.29        2500.00        2713.94     
  1112.78        2500.00        2714.08     
  1110.28        2500.00        2714.21     
  1107.77        2500.00        2714.35     
  1105.26        2500.00        2714.48     
  1102.76        2500.00        2714.62     
  1100.25        2500.00        2714.76     
  1097.74        2500.00        2714.89     
  1095.24        2500.00        2715.03     
  1092.73        2500.00        2715.17     
  1090.23        2500.00        2715.30     
  1087.72        2500.00        2715.44     
  1085.21        2500.00        2715.57     
  1082.71        2500.00        2715.71     
  1080.20        2500.00        2715.84     
  1077.69        2500.00        2715.98     
  1075.19        2500.00        2716.11     
  1072.68        2500.00        2716.25     
  1070.18        2500.00        2716.38     
  1067.67        2500.00        2716.52     
  1065.16        2500.00        2716.65     
  1062.66        2500.00        2716.79     
  1060.15        2500.00        2716.92     
  1057.64        2500.00        2717.06     
  1055.14        2500.00        2717.19     
  1052.63        2500.00        2717.33     
  1050.13        2500.00        2717.46     
  1047.62        2500.00        2717.60     
  1045.11        2500.00        2717.73     
  1042.61        2500.00        2717.87     
  1040.10        2500.00        2718.00     
  1037.59        2500.00        2718.13     
  1035.09        2500.00        2718.27     
  1032.58        2500.00        2718.40     
  1030.08        2500.00        2718.54     
  1027.57        2500.00        2718.67     
  1025.06        2500.00        2718.80     
  1022.56        2500.00        2718.93     
  1020.05        2500.00        2719.07     
  1017.54        2500.00        2719.20     
  1015.04        2500.00        2719.34     
  1012.53        2500.00        2719.47     
  1010.03        2500.00        2719.60     
  1007.52        2500.00        2719.73     
  1005.01        2500.00        2719.87     
  1002.51        2500.00        2720.00     
  1000.00        2500.00        2720.13     
