|6.6.6
Archiving\03_Data\DeqLP/QFM_m0.75/K22/K22_6.tab                       
           1
T(K)    
  0.000000000000000E+000
  0.000000000000000E+000
           0
           3
T(K)           P(bar)         rho,kg/m3     
  2000.00        500.000        3233.91     
  1996.79        500.000        3226.07     
  1993.59        500.000        3219.26     
  1990.38        500.000        3213.28     
  1987.18        500.000        3208.02     
  1983.97        500.000        3203.35     
  1980.77        500.000        3199.19     
  1977.56        500.000        3195.46     
  1974.36        500.000        3192.12     
  1971.15        500.000        3182.04     
  1967.95        500.000        3174.42     
  1964.74        500.000        3168.48     
  1961.54        500.000        3163.76     
  1958.33        500.000        3159.94     
  1955.13        500.000        3156.80     
  1951.92        500.000        3154.19     
  1948.72        500.000        3152.00     
  1945.51        500.000        3146.70     
  1942.31        500.000        3143.28     
  1939.10        500.000        3140.96     
  1935.90        500.000        3139.32     
  1932.69        500.000        3138.15     
  1929.49        500.000        3137.30     
  1926.28        500.000        3136.68     
  1923.08        500.000        3136.25     
  1919.87        500.000        3136.31     
  1916.67        500.000        3136.45     
  1913.46        500.000        3137.40     
  1910.26        500.000        3138.67     
  1907.05        500.000        3141.79     
  1903.85        500.000        3144.52     
  1900.64        500.000        3146.95     
  1897.44        500.000        3149.12     
  1894.23        500.000        3151.92     
  1891.03        500.000        3154.46     
  1887.82        500.000        3156.79     
  1884.62        500.000        3158.93     
  1881.41        500.000        3160.92     
  1878.21        500.000        3162.77     
  1875.00        500.000        3164.50     
  1871.79        500.000        3166.12     
  1868.59        500.000        3168.41     
  1865.38        500.000        3170.56     
  1862.18        500.000        3172.60     
  1858.97        500.000        3174.53     
  1855.77        500.000        3176.37     
  1852.56        500.000        3178.12     
  1849.36        500.000        3179.80     
  1846.15        500.000        3181.40     
  1842.95        500.000        3183.50     
  1839.74        500.000        3185.51     
  1836.54        500.000        3187.44     
  1833.33        500.000        3189.31     
  1830.13        500.000        3191.10     
  1826.92        500.000        3192.83     
  1823.72        500.000        3194.50     
  1820.51        500.000        3196.12     
  1817.31        500.000        3198.08     
  1814.10        500.000        3199.98     
  1810.90        500.000        3201.83     
  1807.69        500.000        3203.62     
  1804.49        500.000        3205.36     
  1801.28        500.000        3207.05     
  1798.08        500.000        3208.69     
  1794.87        500.000        3210.29     
  1791.67        500.000        3212.10     
  1788.46        500.000        3213.86     
  1785.26        500.000        3215.58     
  1782.05        500.000        3217.25     
  1778.85        500.000        3218.89     
  1775.64        500.000        3220.49     
  1772.44        500.000        3222.06     
  1769.23        500.000        3223.59     
  1766.03        500.000        3225.27     
  1762.82        500.000        3226.91     
  1759.62        500.000        3228.52     
  1756.41        500.000        3230.10     
  1753.21        500.000        3231.65     
  1750.00        500.000        3233.16     
  1746.79        500.000        3234.65     
  1743.59        500.000        3236.12     
  1740.38        500.000        3237.64     
  1737.18        500.000        3239.14     
  1733.97        500.000        3240.61     
  1730.77        500.000        3242.05     
  1727.56        500.000        3243.48     
  1724.36        500.000        3244.88     
  1721.15        500.000        3246.25     
  1717.95        500.000        3247.61     
  1714.74        500.000        3248.98     
  1711.54        500.000        3250.33     
  1708.33        500.000        3251.65     
  1705.13        500.000        3252.96     
  1701.92        500.000        3254.26     
  1698.72        500.000        3255.53     
  1695.51        500.000        3256.79     
  1692.31        500.000        3258.03     
  1689.10        500.000        3259.24     
  1685.90        500.000        3260.43     
  1682.69        500.000        3261.60     
  1679.49        500.000        3262.76     
  1676.28        500.000        3263.91     
  1673.08        500.000        3265.05     
  1669.87        500.000        3266.17     
  1666.67        500.000        3267.29     
  1663.46        500.000        3268.34     
  1660.26        500.000        3269.39     
  1657.05        500.000        3270.43     
  1653.85        500.000        3271.46     
  1650.64        500.000        3272.48     
  1647.44        500.000        3273.49     
  1644.23        500.000        3274.49     
  1641.03        500.000        3275.48     
  1637.82        500.000        3276.41     
  1634.62        500.000        3277.33     
  1631.41        500.000        3278.25     
  1628.21        500.000        3279.16     
  1625.00        500.000        3280.06     
  1621.79        500.000        3280.95     
  1618.59        500.000        3281.84     
  1615.38        500.000        3282.73     
  1612.18        500.000        3281.86     
  1608.97        500.000        3281.08     
  1605.77        500.000        3280.44     
  1602.56        500.000        3279.85     
  1599.36        500.000        3279.44     
  1596.15        500.000        3279.05     
  1592.95        500.000        3278.69     
  1589.74        500.000        3278.36     
  1586.54        500.000        3278.23     
  1583.33        500.000        3278.12     
  1580.13        500.000        3278.02     
  1576.92        500.000        3277.94     
  1573.72        500.000        3277.86     
  1570.51        500.000        3277.80     
  1567.31        500.000        3277.75     
  1564.10        500.000        3277.71     
  1560.90        500.000        3277.81     
  1557.69        500.000        3277.91     
  1554.49        500.000        3278.03     
  1551.28        500.000        3278.14     
  1548.08        500.000        3278.27     
  1544.87        500.000        3278.39     
  1541.67        500.000        3278.53     
  1538.46        500.000        3278.66     
  1535.26        500.000        3278.86     
  1532.05        500.000        3279.07     
  1528.85        500.000        3279.28     
  1525.64        500.000        3279.49     
  1522.44        500.000        3279.71     
  1519.23        500.000        3279.92     
  1516.03        500.000        3280.14     
  1512.82        500.000        3280.37     
  1509.62        500.000        3280.62     
  1506.41        500.000        3280.87     
  1503.21        500.000        3281.13     
  1500.00        500.000        3281.39     
  1496.79        500.000        3281.65     
  1493.59        500.000        3281.92     
  1490.38        500.000        3282.19     
  1487.18        500.000        3282.45     
  1483.97        500.000        3282.74     
  1480.77        500.000        3283.02     
  1477.56        500.000        3283.32     
  1474.36        500.000        3283.63     
  1471.15        500.000        3284.01     
  1467.95        500.000        3284.40     
  1464.74        500.000        3284.79     
  1461.54        500.000        3285.18     
  1458.33        500.000        3285.60     
  1455.13        500.000        3286.03     
  1451.92        500.000        3286.45     
  1448.72        500.000        3286.88     
  1445.51        500.000        3287.32     
  1442.31        500.000        3287.76     
  1439.10        500.000        3288.20     
  1435.90        500.000        3288.60     
  1432.69        500.000        3289.04     
  1429.49        500.000        3289.48     
  1426.28        500.000        3289.92     
  1423.08        500.000        3290.23     
  1419.87        500.000        3290.67     
  1416.67        500.000        3291.04     
  1413.46        500.000        3290.79     
  1410.26        500.000        3290.27     
  1407.05        500.000        3290.70     
  1403.85        500.000        3291.14     
  1400.64        500.000        3291.58     
  1397.44        500.000        3292.01     
  1394.23        500.000        3292.45     
  1391.03        500.000        3292.88     
  1387.82        500.000        3293.32     
  1384.62        500.000        3287.60     
  1381.41        500.000        3288.03     
  1378.21        500.000        3288.46     
  1375.00        500.000        3288.89     
  1371.79        500.000        3289.32     
  1368.59        500.000        3289.75     
  1365.38        500.000        3290.18     
  1362.18        500.000        3290.61     
  1358.97        500.000        3286.37     
  1355.77        500.000        3286.79     
  1352.56        500.000        3287.22     
  1349.36        500.000        3287.64     
  1346.15        500.000        3288.07     
  1342.95        500.000        3288.49     
  1339.74        500.000        3288.92     
  1336.54        500.000        3289.34     
  1333.33        500.000        3285.82     
  1330.13        500.000        3286.24     
  1326.92        500.000        3286.66     
  1323.72        500.000        3287.08     
  1320.51        500.000        3287.50     
  1317.31        500.000        3287.93     
  1314.10        500.000        3288.35     
  1310.90        500.000        3288.77     
  1307.69        500.000        3285.73     
  1304.49        500.000        3286.15     
  1301.28        500.000        3286.57     
  1298.08        500.000        3286.98     
  1294.87        500.000        3287.40     
  1291.67        500.000        3287.82     
  1288.46        500.000        3288.23     
  1285.26        500.000        3288.65     
  1282.05        500.000        3286.05     
  1278.85        500.000        3278.31     
  1275.64        500.000        3278.66     
  1272.44        500.000        3279.07     
  1269.23        500.000        3279.34     
  1266.03        500.000        3279.76     
  1262.82        500.000        3280.17     
  1259.62        500.000        3280.58     
  1256.41        500.000        3280.73     
  1253.21        500.000        3281.14     
  1250.00        500.000        3281.55     
  1246.79        500.000        3281.96     
  1243.59        500.000        3282.37     
  1240.38        500.000        3282.78     
  1237.18        500.000        3283.19     
  1233.97        500.000        3283.60     
  1230.77        500.000        3283.52     
  1227.56        500.000        3283.92     
  1224.36        500.000        3284.33     
  1221.15        500.000        3284.74     
  1217.95        500.000        3285.14     
  1214.74        500.000        3285.55     
  1211.54        500.000        3285.96     
  1208.33        500.000        3286.36     
  1205.13        500.000        3286.32     
  1201.92        500.000        3286.73     
  1198.72        500.000        3287.13     
  1195.51        500.000        3287.54     
  1192.31        500.000        3287.94     
  1189.10        500.000        3288.35     
  1185.90        500.000        3288.75     
  1182.69        500.000        3289.16     
  1179.49        500.000        3289.15     
  1176.28        500.000        3289.56     
  1173.08        500.000        3289.96     
  1169.87        500.000        3290.36     
  1166.67        500.000        3290.77     
  1163.46        500.000        3291.17     
  1160.26        500.000        3291.57     
  1157.05        500.000        3291.97     
  1153.85        500.000        3292.00     
  1150.64        500.000        3292.40     
  1147.44        500.000        3292.80     
  1144.23        500.000        3293.20     
  1141.03        500.000        3293.60     
  1137.82        500.000        3294.00     
  1134.62        500.000        3294.40     
  1131.41        500.000        3294.80     
  1128.21        500.000        3294.87     
  1125.00        500.000        3295.27     
  1121.79        500.000        3295.67     
  1118.59        500.000        3296.07     
  1115.38        500.000        3296.46     
  1112.18        500.000        3296.86     
  1108.97        500.000        3297.26     
  1105.77        500.000        3297.66     
  1102.56        500.000        3297.76     
  1099.36        500.000        3298.16     
  1096.15        500.000        3298.56     
  1092.95        500.000        3298.95     
  1089.74        500.000        3299.35     
  1086.54        500.000        3299.75     
  1083.33        500.000        3300.14     
  1080.13        500.000        3300.54     
  1076.92        500.000        3300.68     
  1073.72        500.000        3301.07     
  1070.51        500.000        3301.47     
  1067.31        500.000        3301.86     
  1064.10        500.000        3302.26     
  1060.90        500.000        3302.65     
  1057.69        500.000        3303.04     
  1054.49        500.000        3303.43     
  1051.28        500.000        3303.62     
  1048.08        500.000        3304.01     
  1044.87        500.000        3304.40     
  1041.67        500.000        3304.80     
  1038.46        500.000        3305.19     
  1035.26        500.000        3305.58     
  1032.05        500.000        3305.97     
  1028.85        500.000        3306.36     
  1025.64        500.000        3306.59     
  1022.44        500.000        3306.98     
  1019.23        500.000        3307.37     
  1016.03        500.000        3307.76     
  1012.82        500.000        3308.15     
  1009.62        500.000        3308.54     
  1006.41        500.000        3308.93     
  1003.21        500.000        3309.31     
  1000.00        500.000        3309.59     
