|6.6.6
Archiving\03_Data\frac/QFM_m1.25/KHA22/KHA22_6.tab                        
           1
T(K)    
  0.000000000000000E+000
  0.000000000000000E+000
           0
           3
T(K)           P(bar)         rho,kg/m3     
  2000.00        2500.00        5154.70     
  1997.49        2500.00        5155.46     
  1994.99        2500.00        5156.21     
  1992.48        2500.00        5156.95     
  1989.97        2500.00        5157.70     
  1987.47        2500.00        5158.45     
  1984.96        2500.00        5159.20     
  1982.46        2500.00        5159.95     
  1979.95        2500.00        5160.70     
  1977.44        2500.00        5161.44     
  1974.94        2500.00        5162.19     
  1972.43        2500.00        5162.94     
  1969.92        2500.00        5163.68     
  1967.42        2500.00        5164.43     
  1964.91        2500.00        5165.17     
  1962.41        2500.00        5165.92     
  1959.90        2500.00        4150.99     
  1957.39        2500.00        2893.52     
  1954.89        2500.00        2894.08     
  1952.38        2500.00        2894.64     
  1949.87        2500.00        2895.19     
  1947.37        2500.00        2895.75     
  1944.86        2500.00        2896.31     
  1942.36        2500.00        2896.87     
  1939.85        2500.00        2897.42     
  1937.34        2500.00        2898.03     
  1934.84        2500.00        2898.54     
  1932.33        2500.00        2899.10     
  1929.82        2500.00        2899.66     
  1927.32        2500.00        2900.21     
  1924.81        2500.00        2900.77     
  1922.31        2500.00        2901.33     
  1919.80        2500.00        2901.89     
  1917.29        2500.00        2902.51     
  1914.79        2500.00        2903.00     
  1912.28        2500.00        3136.49     
  1909.77        2500.00        3136.82     
  1907.27        2500.00        3139.22     
  1904.76        2500.00        3140.38     
  1902.26        2500.00        3142.10     
  1899.75        2500.00        3143.55     
  1897.24        2500.00        3145.02     
  1894.74        2500.00        3146.30     
  1892.23        2500.00        3147.86     
  1889.72        2500.00        3149.36     
  1887.22        2500.00        3152.13     
  1884.71        2500.00        3165.43     
  1882.21        2500.00        3175.99     
  1879.70        2500.00        3177.74     
  1877.19        2500.00        3179.08     
  1874.69        2500.00        3180.45     
  1872.18        2500.00        3182.05     
  1869.67        2500.00        3183.49     
  1867.17        2500.00        3184.84     
  1864.66        2500.00        3186.75     
  1862.16        2500.00        3187.98     
  1859.65        2500.00        3189.44     
  1857.14        2500.00        3190.92     
  1854.64        2500.00        3192.69     
  1852.13        2500.00        3194.50     
  1849.62        2500.00        3195.61     
  1847.12        2500.00        3197.24     
  1844.61        2500.00        3198.34     
  1842.11        2500.00        3199.91     
  1839.60        2500.00        3201.63     
  1837.09        2500.00        3203.14     
  1834.59        2500.00        3205.35     
  1832.08        2500.00        3206.70     
  1829.57        2500.00        3207.82     
  1827.07        2500.00        3208.94     
  1824.56        2500.00        3210.74     
  1822.06        2500.00        3212.19     
  1819.55        2500.00        3216.63     
  1817.04        2500.00        3215.08     
  1814.54        2500.00        3215.81     
  1812.03        2500.00        3218.66     
  1809.52        2500.00        3220.41     
  1807.02        2500.00        3221.61     
  1804.51        2500.00        3229.16     
  1802.01        2500.00        2901.22     
  1799.50        2500.00        2901.75     
  1796.99        2500.00        3228.00     
  1794.49        2500.00        3229.25     
  1791.98        2500.00        3230.75     
  1789.47        2500.00        3232.44     
  1786.97        2500.00        3234.32     
  1784.46        2500.00        3235.47     
  1781.95        2500.00        3236.71     
  1779.45        2500.00        3238.19     
  1776.94        2500.00        3240.20     
  1774.44        2500.00        3241.52     
  1771.93        2500.00        3242.95     
  1769.42        2500.00        3244.36     
  1766.92        2500.00        3246.18     
  1764.41        2500.00        3247.70     
  1761.90        2500.00        3248.86     
  1759.40        2500.00        3250.69     
  1756.89        2500.00        3251.90     
  1754.39        2500.00        3253.50     
  1751.88        2500.00        3255.38     
  1749.37        2500.00        3256.82     
  1746.87        2500.00        3258.33     
  1744.36        2500.00        3259.92     
  1741.85        2500.00        3261.57     
  1739.35        2500.00        3262.52     
  1736.84        2500.00        3264.51     
  1734.34        2500.00        3265.63     
  1731.83        2500.00        3267.15     
  1729.32        2500.00        3269.08     
  1726.82        2500.00        3268.89     
  1724.31        2500.00        3271.78     
  1721.80        2500.00        3273.39     
  1719.30        2500.00        3274.33     
  1716.79        2500.00        3276.94     
  1714.29        2500.00        3276.77     
  1711.78        2500.00        3279.34     
  1709.27        2500.00        3281.57     
  1706.77        2500.00        3282.12     
  1704.26        2500.00        3283.42     
  1701.75        2500.00        3285.18     
  1699.25        2500.00        3287.33     
  1696.74        2500.00        3288.36     
  1694.24        2500.00        3289.50     
  1691.73        2500.00        3291.25     
  1689.22        2500.00        3293.36     
  1686.72        2500.00        3291.42     
  1684.21        2500.00        3296.24     
  1681.70        2500.00        3296.96     
  1679.20        2500.00        3298.38     
  1676.69        2500.00        3299.64     
  1674.19        2500.00        3301.86     
  1671.68        2500.00        3303.20     
  1669.17        2500.00        3304.51     
  1666.67        2500.00        3306.08     
  1664.16        2500.00        3307.56     
  1661.65        2500.00        3308.40     
  1659.15        2500.00        3309.64     
  1656.64        2500.00        3311.00     
  1654.14        2500.00        3312.93     
  1651.63        2500.00        3313.96     
  1649.12        2500.00        3315.42     
  1646.62        2500.00        3316.84     
  1644.11        2500.00        3317.69     
  1641.60        2500.00        3319.42     
  1639.10        2500.00        3317.18     
  1636.59        2500.00        3233.86     
  1634.09        2500.00        3234.35     
  1631.58        2500.00        3236.17     
  1629.07        2500.00        3242.72     
  1626.57        2500.00        3237.44     
  1624.06        2500.00        3238.31     
  1621.55        2500.00        3238.88     
  1619.05        2500.00        3239.92     
  1616.54        2500.00        3242.15     
  1614.04        2500.00        3242.21     
  1611.53        2500.00        3242.78     
  1609.02        2500.00        3243.55     
  1606.52        2500.00        3244.60     
  1604.01        2500.00        3246.69     
  1601.50        2500.00        3246.97     
  1599.00        2500.00        3247.35     
  1596.49        2500.00        3248.58     
  1593.98        2500.00        3249.08     
  1591.48        2500.00        3250.31     
  1588.97        2500.00        3251.09     
  1586.47        2500.00        3251.84     
  1583.96        2500.00        3252.66     
  1581.45        2500.00        3253.75     
  1578.95        2500.00        3254.60     
  1576.44        2500.00        3256.68     
  1573.93        2500.00        3256.47     
  1571.43        2500.00        3257.61     
  1568.92        2500.00        3257.20     
  1566.42        2500.00        3259.15     
  1563.91        2500.00        3259.85     
  1561.40        2500.00        3260.89     
  1558.90        2500.00        3261.64     
  1556.39        2500.00        3262.85     
  1553.88        2500.00        3263.74     
  1551.38        2500.00        3264.17     
  1548.87        2500.00        3264.77     
  1546.37        2500.00        3265.87     
  1543.86        2500.00        3266.58     
  1541.35        2500.00        3267.61     
  1538.85        2500.00        3268.93     
  1536.34        2500.00        3267.73     
  1533.83        2500.00        3269.66     
  1531.33        2500.00        3270.92     
  1528.82        2500.00        3271.17     
  1526.32        2500.00        3271.37     
  1523.81        2500.00        3272.50     
  1521.30        2500.00        3273.56     
  1518.80        2500.00        3274.43     
  1516.29        2500.00        3275.07     
  1513.78        2500.00        3275.51     
  1511.28        2500.00        3276.90     
  1508.77        2500.00        3277.43     
  1506.27        2500.00        3278.20     
  1503.76        2500.00        3278.33     
  1501.25        2500.00        3278.94     
  1498.75        2500.00        3280.25     
  1496.24        2500.00        3280.84     
  1493.73        2500.00        3281.87     
  1491.23        2500.00        3267.68     
  1488.72        2500.00        3261.21     
  1486.22        2500.00        3263.08     
  1483.71        2500.00        3264.65     
  1481.20        2500.00        3265.84     
  1478.70        2500.00        3266.91     
  1476.19        2500.00        3268.32     
  1473.68        2500.00        3269.84     
  1471.18        2500.00        3272.01     
  1468.67        2500.00        3272.51     
  1466.17        2500.00        3274.18     
  1463.66        2500.00        3262.93     
  1461.15        2500.00        3262.87     
  1458.65        2500.00        3264.50     
  1456.14        2500.00        3266.59     
  1453.63        2500.00        3268.19     
  1451.13        2500.00        3270.10     
  1448.62        2500.00        3272.00     
  1446.12        2500.00        3273.44     
  1443.61        2500.00        3275.58     
  1441.10        2500.00        3277.30     
  1438.60        2500.00        3279.65     
  1436.09        2500.00        3281.17     
  1433.58        2500.00        3283.18     
  1431.08        2500.00        3285.35     
  1428.57        2500.00        3286.86     
  1426.07        2500.00        3289.14     
  1423.56        2500.00        3291.05     
  1421.05        2500.00        3293.20     
  1418.55        2500.00        3145.51     
  1416.04        2500.00        3119.94     
  1413.53        2500.00        3122.46     
  1411.03        2500.00        3125.48     
  1408.52        2500.00        3128.30     
  1406.02        2500.00        3130.21     
  1403.51        2500.00        3132.72     
  1401.00        2500.00        3135.20     
  1398.50        2500.00        3135.97     
  1395.99        2500.00        3142.40     
  1393.48        2500.00        3143.23     
  1390.98        2500.00        3145.71     
  1388.47        2500.00        3148.35     
  1385.96        2500.00        3151.09     
  1383.46        2500.00        3153.62     
  1380.95        2500.00        3155.18     
  1378.45        2500.00        3159.88     
  1375.94        2500.00        3161.79     
  1373.43        2500.00        3165.65     
  1370.93        2500.00        3167.05     
  1368.42        2500.00        3169.56     
  1365.91        2500.00        3172.51     
  1363.41        2500.00        3175.22     
  1360.90        2500.00        3178.08     
  1358.40        2500.00        3180.36     
  1355.89        2500.00        3182.95     
  1353.38        2500.00        3185.59     
  1350.88        2500.00        3188.18     
  1348.37        2500.00        3190.98     
  1345.86        2500.00        3193.39     
  1343.36        2500.00        3196.43     
  1340.85        2500.00        3198.44     
  1338.35        2500.00        3200.88     
  1335.84        2500.00        3203.37     
  1333.33        2500.00        3205.95     
  1330.83        2500.00        3208.19     
  1328.32        2500.00        3210.51     
  1325.81        2500.00        3212.93     
  1323.31        2500.00        3215.35     
  1320.80        2500.00        3216.99     
  1318.30        2500.00        3219.24     
  1315.79        2500.00        3221.26     
  1313.28        2500.00        3223.32     
  1310.78        2500.00        3225.55     
  1308.27        2500.00        2786.83     
  1305.76        2500.00        2792.67     
  1303.26        2500.00        2798.33     
  1300.75        2500.00        2803.65     
  1298.25        2500.00        2808.76     
  1295.74        2500.00        2813.49     
  1293.23        2500.00        2818.91     
  1290.73        2500.00        2849.89     
  1288.22        2500.00        2847.80     
  1285.71        2500.00        2844.68     
  1283.21        2500.00        2837.54     
  1280.70        2500.00        2827.83     
  1278.20        2500.00        2811.11     
  1275.69        2500.00        2809.88     
  1273.18        2500.00        2823.67     
  1270.68        2500.00        2824.12     
  1268.17        2500.00        2832.52     
  1265.66        2500.00        2837.88     
  1263.16        2500.00        2845.61     
  1260.65        2500.00        2849.44     
  1258.15        2500.00        2852.68     
  1255.64        2500.00        2890.80     
  1253.13        2500.00        2768.55     
  1250.63        2500.00        2762.45     
  1248.12        2500.00        2763.28     
  1245.61        2500.00        2763.51     
  1243.11        2500.00        2764.58     
  1240.60        2500.00        2765.58     
  1238.10        2500.00        2765.00     
  1235.59        2500.00        2767.66     
  1233.08        2500.00        2766.05     
  1230.58        2500.00        2768.22     
  1228.07        2500.00        2767.22     
  1225.56        2500.00        2767.92     
  1223.06        2500.00        2770.02     
  1220.55        2500.00        2770.63     
  1218.05        2500.00        2771.66     
  1215.54        2500.00        2772.37     
  1213.03        2500.00        2771.22     
  1210.53        2500.00        2773.05     
  1208.02        2500.00        2774.07     
  1205.51        2500.00        2774.72     
  1203.01        2500.00        2775.23     
  1200.50        2500.00        2773.82     
  1197.99        2500.00        2775.68     
  1195.49        2500.00        2779.29     
  1192.98        2500.00        2776.94     
  1190.48        2500.00        2777.77     
  1187.97        2500.00        2778.25     
  1185.46        2500.00        2778.55     
  1182.96        2500.00        2778.13     
  1180.45        2500.00        2778.77     
  1177.94        2500.00        2779.65     
  1175.44        2500.00        2780.09     
  1172.93        2500.00        2780.54     
  1170.43        2500.00        2781.01     
  1167.92        2500.00        2781.62     
  1165.41        2500.00        2782.07     
  1162.91        2500.00        2782.52     
  1160.40        2500.00        2782.99     
  1157.89        2500.00        2783.47     
  1155.39        2500.00        2783.97     
  1152.88        2500.00        2784.63     
  1150.38        2500.00        2785.04     
  1147.87        2500.00        2785.55     
  1145.36        2500.00        2786.42     
  1142.86        2500.00        2787.08     
  1140.35        2500.00        2787.89     
  1137.84        2500.00        2788.61     
  1135.34        2500.00        2788.83     
  1132.83        2500.00        2789.40     
  1130.33        2500.00        2789.59     
  1127.82        2500.00        2790.49     
  1125.31        2500.00        2791.23     
  1122.81        2500.00        2791.65     
  1120.30        2500.00        2791.65     
  1117.79        2500.00        2792.78     
  1115.29        2500.00        2794.28     
  1112.78        2500.00        2793.53     
  1110.28        2500.00        2795.60     
  1107.77        2500.00        2795.37     
  1105.26        2500.00        2795.85     
  1102.76        2500.00        2796.35     
  1100.25        2500.00        2797.58     
  1097.74        2500.00        2797.29     
  1095.24        2500.00        2798.05     
  1092.73        2500.00        2799.06     
  1090.23        2500.00        2801.04     
  1087.72        2500.00        2801.83     
  1085.21        2500.00        2802.48     
  1082.71        2500.00        2802.96     
  1080.20        2500.00        2803.03     
  1077.69        2500.00        2804.64     
  1075.19        2500.00        2802.63     
  1072.68        2500.00        2806.13     
  1070.18        2500.00        2807.39     
  1067.67        2500.00        2808.40     
  1065.16        2500.00        2808.80     
  1062.66        2500.00        2809.23     
  1060.15        2500.00        2809.25     
  1057.64        2500.00        2811.32     
  1055.14        2500.00        2811.70     
  1052.63        2500.00        2817.12     
  1050.13        2500.00        2817.70     
  1047.62        2500.00        2818.25     
  1045.11        2500.00        2812.85     
  1042.61        2500.00        2815.24     
  1040.10        2500.00        2819.90     
  1037.59        2500.00        2821.38     
  1035.09        2500.00        2821.01     
  1032.58        2500.00        2823.31     
  1030.08        2500.00        2822.28     
  1027.57        2500.00        2820.44     
  1025.06        2500.00        2825.13     
  1022.56        2500.00        2825.73     
  1020.05        2500.00        2824.10     
  1017.54        2500.00        2826.16     
  1015.04        2500.00        2822.89     
  1012.53        2500.00        2827.87     
  1010.03        2500.00        2828.27     
  1007.52        2500.00        2828.74     
  1005.01        2500.00        2829.36     
  1002.51        2500.00        2829.92     
  1000.00        2500.00        2830.40     
