|6.6.6
Archiving\03_Data\frac/QFM_m3.25/NWA1068/NWA1068_6.tab                    
           1
T(K)    
  0.000000000000000E+000
  0.000000000000000E+000
           0
           3
T(K)           P(bar)         rho,kg/m3     
  2000.00        2500.00        3681.23     
  1997.49        2500.00        3681.62     
  1994.99        2500.00        3682.00     
  1992.48        2500.00        3682.39     
  1989.97        2500.00        3682.78     
  1987.47        2500.00        3683.16     
  1984.96        2500.00        3683.55     
  1982.46        2500.00        3683.93     
  1979.95        2500.00        3684.32     
  1977.44        2500.00        3684.70     
  1974.94        2500.00        3685.09     
  1972.43        2500.00        3685.47     
  1969.92        2500.00        3685.86     
  1967.42        2500.00        3686.24     
  1964.91        2500.00        3686.63     
  1962.41        2500.00        3687.01     
  1959.90        2500.00        3687.39     
  1957.39        2500.00        3687.78     
  1954.89        2500.00        3688.16     
  1952.38        2500.00        3688.55     
  1949.87        2500.00        3688.93     
  1947.37        2500.00        3689.31     
  1944.86        2500.00        3689.70     
  1942.36        2500.00        3690.08     
  1939.85        2500.00        3690.46     
  1937.34        2500.00        3690.85     
  1934.84        2500.00        3691.23     
  1932.33        2500.00        3691.61     
  1929.82        2500.00        3691.99     
  1927.32        2500.00        3692.38     
  1924.81        2500.00        3692.76     
  1922.31        2500.00        3693.14     
  1919.80        2500.00        3693.52     
  1917.29        2500.00        3693.90     
  1914.79        2500.00        3694.29     
  1912.28        2500.00        3694.67     
  1909.77        2500.00        3695.05     
  1907.27        2500.00        3695.43     
  1904.76        2500.00        3695.81     
  1902.26        2500.00        3696.19     
  1899.75        2500.00        3696.57     
  1897.24        2500.00        3696.95     
  1894.74        2500.00        3697.34     
  1892.23        2500.00        3697.72     
  1889.72        2500.00        3698.10     
  1887.22        2500.00        3698.48     
  1884.71        2500.00        3698.86     
  1882.21        2500.00        3699.24     
  1879.70        2500.00        3699.62     
  1877.19        2500.00        3700.00     
  1874.69        2500.00        3700.38     
  1872.18        2500.00        3700.76     
  1869.67        2500.00        3701.13     
  1867.17        2500.00        3701.51     
  1864.66        2500.00        3701.89     
  1862.16        2500.00        3702.27     
  1859.65        2500.00        3702.65     
  1857.14        2500.00        3703.03     
  1854.64        2500.00        3703.41     
  1852.13        2500.00        3703.79     
  1849.62        2500.00        3704.16     
  1847.12        2500.00        3704.54     
  1844.61        2500.00        3704.92     
  1842.11        2500.00        3705.30     
  1839.60        2500.00        3705.68     
  1837.09        2500.00        3706.05     
  1834.59        2500.00        3706.43     
  1832.08        2500.00        3706.81     
  1829.57        2500.00        3707.19     
  1827.07        2500.00        3707.56     
  1824.56        2500.00        3707.94     
  1822.06        2500.00        3708.32     
  1819.55        2500.00        3708.69     
  1817.04        2500.00        3709.07     
  1814.54        2500.00        3709.45     
  1812.03        2500.00        3709.82     
  1809.52        2500.00        3710.20     
  1807.02        2500.00        3710.58     
  1804.51        2500.00        3710.95     
  1802.01        2500.00        3711.33     
  1799.50        2500.00        3711.70     
  1796.99        2500.00        3712.08     
  1794.49        2500.00        3712.45     
  1791.98        2500.00        3712.83     
  1789.47        2500.00        3713.20     
  1786.97        2500.00        3713.58     
  1784.46        2500.00        3713.95     
  1781.95        2500.00        3714.33     
  1779.45        2500.00        3714.70     
  1776.94        2500.00        3715.08     
  1774.44        2500.00        3715.45     
  1771.93        2500.00        3715.83     
  1769.42        2500.00        3716.20     
  1766.92        2500.00        3716.57     
  1764.41        2500.00        3716.95     
  1761.90        2500.00        3717.32     
  1759.40        2500.00        3717.70     
  1756.89        2500.00        3718.07     
  1754.39        2500.00        3718.44     
  1751.88        2500.00        3718.82     
  1749.37        2500.00        3719.19     
  1746.87        2500.00        3719.56     
  1744.36        2500.00        3719.93     
  1741.85        2500.00        3720.31     
  1739.35        2500.00        3720.68     
  1736.84        2500.00        3721.05     
  1734.34        2500.00        3721.42     
  1731.83        2500.00        3721.80     
  1729.32        2500.00        3722.17     
  1726.82        2500.00        3722.54     
  1724.31        2500.00        3722.91     
  1721.80        2500.00        3723.28     
  1719.30        2500.00        3723.66     
  1716.79        2500.00        3724.03     
  1714.29        2500.00        3724.40     
  1711.78        2500.00        3724.77     
  1709.27        2500.00        3725.14     
  1706.77        2500.00        3725.51     
  1704.26        2500.00        3725.88     
  1701.75        2500.00        3726.25     
  1699.25        2500.00        3726.62     
  1696.74        2500.00        3726.99     
  1694.24        2500.00        3728.26     
  1691.73        2500.00        3728.75     
  1689.22        2500.00        3737.59     
  1686.72        2500.00        3737.89     
  1684.21        2500.00        3738.19     
  1681.70        2500.00        3738.54     
  1679.20        2500.00        3738.69     
  1676.69        2500.00        3739.41     
  1674.19        2500.00        3738.99     
  1671.68        2500.00        3739.69     
  1669.17        2500.00        3739.90     
  1666.67        2500.00        3687.35     
  1664.16        2500.00        4497.95     
  1661.65        2500.00        4160.98     
  1659.15        2500.00        3420.31     
  1656.64        2500.00        3406.12     
  1654.14        2500.00        3408.46     
  1651.63        2500.00        3410.86     
  1649.12        2500.00        3412.75     
  1646.62        2500.00        3415.01     
  1644.11        2500.00        3417.56     
  1641.60        2500.00        3419.96     
  1639.10        2500.00        3422.60     
  1636.59        2500.00        3424.04     
  1634.09        2500.00        3426.52     
  1631.58        2500.00        3428.95     
  1629.07        2500.00        3432.14     
  1626.57        2500.00        3433.04     
  1624.06        2500.00        3435.28     
  1621.55        2500.00        3437.40     
  1619.05        2500.00        3439.54     
  1616.54        2500.00        3442.45     
  1614.04        2500.00        3443.76     
  1611.53        2500.00        3448.07     
  1609.02        2500.00        3448.05     
  1606.52        2500.00        3450.52     
  1604.01        2500.00        3451.47     
  1601.50        2500.00        3455.40     
  1599.00        2500.00        3457.35     
  1596.49        2500.00        3457.01     
  1593.98        2500.00        3462.94     
  1591.48        2500.00        3464.30     
  1588.97        2500.00        3467.29     
  1586.47        2500.00        3468.44     
  1583.96        2500.00        3469.01     
  1581.45        2500.00        3472.61     
  1578.95        2500.00        3475.42     
  1576.44        2500.00        3477.11     
  1573.93        2500.00        3479.17     
  1571.43        2500.00        3480.86     
  1568.92        2500.00        3483.90     
  1566.42        2500.00        3485.72     
  1563.91        2500.00        3489.41     
  1561.40        2500.00        3489.36     
  1558.90        2500.00        3493.49     
  1556.39        2500.00        3494.48     
  1553.88        2500.00        3498.24     
  1551.38        2500.00        3499.55     
  1548.87        2500.00        3501.79     
  1546.37        2500.00        3502.89     
  1543.86        2500.00        3506.04     
  1541.35        2500.00        3507.94     
  1538.85        2500.00        3509.71     
  1536.34        2500.00        3511.89     
  1533.83        2500.00        3514.89     
  1531.33        2500.00        3516.52     
  1528.82        2500.00        3517.54     
  1526.32        2500.00        3521.38     
  1523.81        2500.00        3522.25     
  1521.30        2500.00        3525.12     
  1518.80        2500.00        3527.13     
  1516.29        2500.00        3531.19     
  1513.78        2500.00        3438.45     
  1511.28        2500.00        3315.40     
  1508.77        2500.00        3316.42     
  1506.27        2500.00        3318.26     
  1503.76        2500.00        3318.11     
  1501.25        2500.00        3320.56     
  1498.75        2500.00        3321.44     
  1496.24        2500.00        3323.03     
  1493.73        2500.00        3322.47     
  1491.23        2500.00        3322.39     
  1488.72        2500.00        3303.72     
  1486.22        2500.00        3301.94     
  1483.71        2500.00        3304.44     
  1481.20        2500.00        3306.64     
  1478.70        2500.00        3308.63     
  1476.19        2500.00        3310.70     
  1473.68        2500.00        3312.90     
  1471.18        2500.00        3314.94     
  1468.67        2500.00        3317.32     
  1466.17        2500.00        3320.73     
  1463.66        2500.00        3337.87     
  1461.15        2500.00        3339.42     
  1458.65        2500.00        3341.59     
  1456.14        2500.00        3343.90     
  1453.63        2500.00        3345.25     
  1451.13        2500.00        3348.42     
  1448.62        2500.00        3347.83     
  1446.12        2500.00        3354.28     
  1443.61        2500.00        3354.20     
  1441.10        2500.00        3356.30     
  1438.60        2500.00        3357.92     
  1436.09        2500.00        3360.60     
  1433.58        2500.00        3362.86     
  1431.08        2500.00        3364.51     
  1428.57        2500.00        3366.98     
  1426.07        2500.00        3369.23     
  1423.56        2500.00        3371.50     
  1421.05        2500.00        3373.51     
  1418.55        2500.00        3377.89     
  1416.04        2500.00        3381.17     
  1413.53        2500.00        3377.35     
  1411.03        2500.00        3382.46     
  1408.52        2500.00        3384.56     
  1406.02        2500.00        3288.33     
  1403.51        2500.00        3202.63     
  1401.00        2500.00        3206.54     
  1398.50        2500.00        3210.39     
  1395.99        2500.00        3214.49     
  1393.48        2500.00        3218.44     
  1390.98        2500.00        3221.74     
  1388.47        2500.00        3225.96     
  1385.96        2500.00        3229.97     
  1383.46        2500.00        3233.38     
  1380.95        2500.00        3235.87     
  1378.45        2500.00        3238.22     
  1375.94        2500.00        3244.43     
  1373.43        2500.00        3247.57     
  1370.93        2500.00        3250.93     
  1368.42        2500.00        3254.41     
  1365.91        2500.00        3257.37     
  1363.41        2500.00        3260.13     
  1360.90        2500.00        3263.53     
  1358.40        2500.00        3266.39     
  1355.89        2500.00        3269.77     
  1353.38        2500.00        3272.27     
  1350.88        2500.00        3275.00     
  1348.37        2500.00        3278.01     
  1345.86        2500.00        3280.26     
  1343.36        2500.00        3283.56     
  1340.85        2500.00        3285.16     
  1338.35        2500.00        3289.38     
  1335.84        2500.00        3289.67     
  1333.33        2500.00        3319.65     
  1330.83        2500.00        3334.15     
  1328.32        2500.00        3336.03     
  1325.81        2500.00        3337.10     
  1323.31        2500.00        3337.98     
  1320.80        2500.00        3339.21     
  1318.30        2500.00        3340.63     
  1315.79        2500.00        3341.25     
  1313.28        2500.00        3341.68     
  1310.78        2500.00        3342.46     
  1308.27        2500.00        3342.89     
  1305.76        2500.00        3343.14     
  1303.26        2500.00        3342.97     
  1300.75        2500.00        3342.83     
  1298.25        2500.00        3343.04     
  1295.74        2500.00        2874.42     
  1293.23        2500.00        2853.23     
  1290.73        2500.00        2855.85     
  1288.22        2500.00        2857.26     
  1285.71        2500.00        2857.43     
  1283.21        2500.00        2856.05     
  1280.70        2500.00        2852.83     
  1278.20        2500.00        2846.25     
  1275.69        2500.00        2847.01     
  1273.18        2500.00        2840.20     
  1270.68        2500.00        2842.95     
  1268.17        2500.00        2835.85     
  1265.66        2500.00        2858.35     
  1263.16        2500.00        2849.63     
  1260.65        2500.00        2853.95     
  1258.15        2500.00        2857.96     
  1255.64        2500.00        2869.14     
  1253.13        2500.00        2851.42     
  1250.63        2500.00        2850.33     
  1248.12        2500.00        2861.43     
  1245.61        2500.00        2845.37     
  1243.11        2500.00        2875.31     
  1240.60        2500.00        2815.18     
  1238.10        2500.00        2848.70     
  1235.59        2500.00        2893.18     
  1233.08        2500.00        2773.47     
  1230.58        2500.00        2868.75     
  1228.07        2500.00        2676.09     
  1225.56        2500.00        2676.19     
  1223.06        2500.00        2676.39     
  1220.55        2500.00        2676.50     
  1218.05        2500.00        2676.62     
  1215.54        2500.00        2676.75     
  1213.03        2500.00        2676.88     
  1210.53        2500.00        2677.00     
  1208.02        2500.00        2677.13     
  1205.51        2500.00        2677.26     
  1203.01        2500.00        2677.38     
  1200.50        2500.00        2677.51     
  1197.99        2500.00        2677.64     
  1195.49        2500.00        2677.74     
  1192.98        2500.00        2677.82     
  1190.48        2500.00        2678.00     
  1187.97        2500.00        2678.13     
  1185.46        2500.00        2678.25     
  1182.96        2500.00        2678.38     
  1180.45        2500.00        2678.52     
  1177.94        2500.00        2678.64     
  1175.44        2500.00        2678.76     
  1172.93        2500.00        2678.91     
  1170.43        2500.00        2679.02     
  1167.92        2500.00        2679.13     
  1165.41        2500.00        2679.28     
  1162.91        2500.00        2679.41     
  1160.40        2500.00        2679.53     
  1157.89        2500.00        2679.54     
  1155.39        2500.00        2679.67     
  1152.88        2500.00        2679.91     
  1150.38        2500.00        2680.04     
  1147.87        2500.00        2680.12     
  1145.36        2500.00        2680.51     
  1142.86        2500.00        2680.41     
  1140.35        2500.00        2680.54     
  1137.84        2500.00        2680.67     
  1135.34        2500.00        2680.81     
  1132.83        2500.00        2680.93     
  1130.33        2500.00        2681.05     
  1127.82        2500.00        2681.17     
  1125.31        2500.00        2681.31     
  1122.81        2500.00        2681.43     
  1120.30        2500.00        2681.56     
  1117.79        2500.00        2681.68     
  1115.29        2500.00        2681.81     
  1112.78        2500.00        2681.94     
  1110.28        2500.00        2682.07     
  1107.77        2500.00        2682.19     
  1105.26        2500.00        2682.32     
  1102.76        2500.00        2682.45     
  1100.25        2500.00        2682.58     
  1097.74        2500.00        2682.71     
  1095.24        2500.00        2682.83     
  1092.73        2500.00        2682.96     
  1090.23        2500.00        2683.09     
  1087.72        2500.00        2683.22     
  1085.21        2500.00        2683.34     
  1082.71        2500.00        2683.47     
  1080.20        2500.00        2683.56     
  1077.69        2500.00        2683.72     
  1075.19        2500.00        2683.84     
  1072.68        2500.00        2683.95     
  1070.18        2500.00        2684.07     
  1067.67        2500.00        2684.20     
  1065.16        2500.00        2684.35     
  1062.66        2500.00        2684.40     
  1060.15        2500.00        2684.55     
  1057.64        2500.00        2684.67     
  1055.14        2500.00        2684.78     
  1052.63        2500.00        2684.91     
  1050.13        2500.00        2685.10     
  1047.62        2500.00        2685.24     
  1045.11        2500.00        2685.23     
  1042.61        2500.00        2685.41     
  1040.10        2500.00        2685.53     
  1037.59        2500.00        2685.65     
  1035.09        2500.00        2685.81     
  1032.58        2500.00        2685.96     
  1030.08        2500.00        2686.07     
  1027.57        2500.00        2686.19     
  1025.06        2500.00        2686.30     
  1022.56        2500.00        2686.42     
  1020.05        2500.00        2686.53     
  1017.54        2500.00        2686.65     
  1015.04        2500.00        2686.77     
  1012.53        2500.00        2686.88     
  1010.03        2500.00        2687.03     
  1007.52        2500.00        2687.14     
  1005.01        2500.00        2687.26     
  1002.51        2500.00        2687.38     
  1000.00        2500.00        2687.50     
