|6.6.6
Archiving\03_Data\DeqLP/QFM_m4/WD94/WD94_6.tab                            
           1
T(K)    
  0.000000000000000E+000
  0.000000000000000E+000
           0
           3
T(K)           P(bar)         rho,kg/m3     
  2000.00        500.000        2942.11     
  1996.79        500.000        2942.89     
  1993.59        500.000        2943.67     
  1990.38        500.000        2944.45     
  1987.18        500.000        2945.23     
  1983.97        500.000        2946.01     
  1980.77        500.000        2946.79     
  1977.56        500.000        2947.57     
  1974.36        500.000        2948.35     
  1971.15        500.000        2949.13     
  1967.95        500.000        2949.91     
  1964.74        500.000        2950.69     
  1961.54        500.000        2951.47     
  1958.33        500.000        2952.25     
  1955.13        500.000        2953.03     
  1951.92        500.000        2953.81     
  1948.72        500.000        2954.59     
  1945.51        500.000        2955.37     
  1942.31        500.000        2956.15     
  1939.10        500.000        2956.93     
  1935.90        500.000        2957.71     
  1932.69        500.000        2958.49     
  1929.49        500.000        2959.28     
  1926.28        500.000        2960.06     
  1923.08        500.000        2960.84     
  1919.87        500.000        2961.62     
  1916.67        500.000        2962.40     
  1913.46        500.000        3167.59     
  1910.26        500.000        3168.18     
  1907.05        500.000        3172.77     
  1903.85        500.000        3175.07     
  1900.64        500.000        3176.58     
  1897.44        500.000        3177.72     
  1894.23        500.000        3181.86     
  1891.03        500.000        3185.08     
  1887.82        500.000        3187.69     
  1884.62        500.000        3189.88     
  1881.41        500.000        3191.75     
  1878.21        500.000        3193.39     
  1875.00        500.000        3194.84     
  1871.79        500.000        3196.16     
  1868.59        500.000        3198.33     
  1865.38        500.000        3200.31     
  1862.18        500.000        3203.70     
  1858.97        500.000        3206.36     
  1855.77        500.000        3210.02     
  1852.56        500.000        3213.38     
  1849.36        500.000        3216.48     
  1846.15        500.000        3219.36     
  1842.95        500.000        3222.61     
  1839.74        500.000        3225.65     
  1836.54        500.000        3228.50     
  1833.33        500.000        3231.19     
  1830.13        500.000        3233.73     
  1826.92        500.000        3236.13     
  1823.72        500.000        3238.40     
  1820.51        500.000        3240.57     
  1817.31        500.000        3243.31     
  1814.10        500.000        3245.93     
  1810.90        500.000        3248.43     
  1807.69        500.000        3250.82     
  1804.49        500.000        3253.11     
  1801.28        500.000        3255.32     
  1798.08        500.000        3257.44     
  1794.87        500.000        3259.48     
  1791.67        500.000        3262.09     
  1788.46        500.000        3264.61     
  1785.26        500.000        3267.04     
  1782.05        500.000        3269.38     
  1778.85        500.000        3271.65     
  1775.64        500.000        3273.85     
  1772.44        500.000        3275.98     
  1769.23        500.000        3278.04     
  1766.03        500.000        3280.22     
  1762.82        500.000        3282.35     
  1759.62        500.000        3284.42     
  1756.41        500.000        3286.43     
  1753.21        500.000        3288.39     
  1750.00        500.000        3290.30     
  1746.79        500.000        3292.16     
  1743.59        500.000        3293.97     
  1740.38        500.000        3295.90     
  1737.18        500.000        3297.78     
  1733.97        500.000        3299.62     
  1730.77        500.000        3301.42     
  1727.56        500.000        3303.18     
  1724.36        500.000        3304.90     
  1721.15        500.000        3306.59     
  1717.95        500.000        3308.25     
  1714.74        500.000        3309.77     
  1711.54        500.000        3311.27     
  1708.33        500.000        3312.74     
  1705.13        500.000        3314.19     
  1701.92        500.000        3315.61     
  1698.72        500.000        3317.01     
  1695.51        500.000        3318.39     
  1692.31        500.000        3319.75     
  1689.10        500.000        3321.14     
  1685.90        500.000        3322.52     
  1682.69        500.000        3323.87     
  1679.49        500.000        3325.21     
  1676.28        500.000        3326.53     
  1673.08        500.000        3327.83     
  1669.87        500.000        3329.11     
  1666.67        500.000        3330.38     
  1663.46        500.000        3331.65     
  1660.26        500.000        3332.91     
  1657.05        500.000        3334.16     
  1653.85        500.000        3335.39     
  1650.64        500.000        3336.61     
  1647.44        500.000        3337.82     
  1644.23        500.000        3339.01     
  1641.03        500.000        3340.19     
  1637.82        500.000        3341.05     
  1634.62        500.000        3341.89     
  1631.41        500.000        3342.73     
  1628.21        500.000        3343.57     
  1625.00        500.000        3344.86     
  1621.79        500.000        3346.14     
  1618.59        500.000        3346.33     
  1615.38        500.000        3344.86     
  1612.18        500.000        3344.28     
  1608.97        500.000        3343.72     
  1605.77        500.000        3343.20     
  1602.56        500.000        3342.70     
  1599.36        500.000        3342.23     
  1596.15        500.000        3341.79     
  1592.95        500.000        3341.36     
  1589.74        500.000        3340.97     
  1586.54        500.000        3340.82     
  1583.33        500.000        3340.69     
  1580.13        500.000        3340.58     
  1576.92        500.000        3340.47     
  1573.72        500.000        3340.37     
  1570.51        500.000        3340.28     
  1567.31        500.000        3340.21     
  1564.10        500.000        3340.14     
  1560.90        500.000        3340.17     
  1557.69        500.000        3340.20     
  1554.49        500.000        3340.23     
  1551.28        500.000        3340.28     
  1548.08        500.000        3340.32     
  1544.87        500.000        3340.38     
  1541.67        500.000        3340.44     
  1538.46        500.000        3340.50     
  1535.26        500.000        3340.65     
  1532.05        500.000        3340.80     
  1528.85        500.000        3340.95     
  1525.64        500.000        3341.11     
  1522.44        500.000        3341.27     
  1519.23        500.000        3341.43     
  1516.03        500.000        3341.60     
  1512.82        500.000        3341.77     
  1509.62        500.000        3341.99     
  1506.41        500.000        3342.21     
  1503.21        500.000        3342.43     
  1500.00        500.000        3342.65     
  1496.79        500.000        3342.88     
  1493.59        500.000        3343.11     
  1490.38        500.000        3343.34     
  1487.18        500.000        3343.57     
  1483.97        500.000        3343.79     
  1480.77        500.000        3344.01     
  1477.56        500.000        3344.23     
  1474.36        500.000        3344.46     
  1471.15        500.000        3344.72     
  1467.95        500.000        3344.98     
  1464.74        500.000        3345.23     
  1461.54        500.000        3345.51     
  1458.33        500.000        3345.80     
  1455.13        500.000        3346.09     
  1451.92        500.000        3346.38     
  1448.72        500.000        3346.68     
  1445.51        500.000        3347.10     
  1442.31        500.000        3347.40     
  1439.10        500.000        3347.63     
  1435.90        500.000        3346.14     
  1432.69        500.000        3346.59     
  1429.49        500.000        3347.04     
  1426.28        500.000        3347.48     
  1423.08        500.000        3347.93     
  1419.87        500.000        3348.37     
  1416.67        500.000        3348.82     
  1413.46        500.000        3349.27     
  1410.26        500.000        3340.05     
  1407.05        500.000        3340.49     
  1403.85        500.000        3340.93     
  1400.64        500.000        3341.37     
  1397.44        500.000        3341.80     
  1394.23        500.000        3342.24     
  1391.03        500.000        3342.68     
  1387.82        500.000        3343.12     
  1384.62        500.000        3338.49     
  1381.41        500.000        3338.93     
  1378.21        500.000        3339.36     
  1375.00        500.000        3339.80     
  1371.79        500.000        3340.23     
  1368.59        500.000        3340.66     
  1365.38        500.000        3341.10     
  1362.18        500.000        3341.53     
  1358.97        500.000        3338.27     
  1355.77        500.000        3338.70     
  1352.56        500.000        3339.13     
  1349.36        500.000        3339.56     
  1346.15        500.000        3339.99     
  1342.95        500.000        3340.42     
  1339.74        500.000        3340.85     
  1336.54        500.000        3341.28     
  1333.33        500.000        3338.66     
  1330.13        500.000        3339.09     
  1326.92        500.000        3339.51     
  1323.72        500.000        3339.94     
  1320.51        500.000        3340.37     
  1317.31        500.000        3340.80     
  1314.10        500.000        3341.22     
  1310.90        500.000        3341.65     
  1307.69        500.000        3339.53     
  1304.49        500.000        3339.96     
  1301.28        500.000        3339.79     
  1298.08        500.000        3334.38     
  1294.87        500.000        3334.70     
  1291.67        500.000        3335.12     
  1288.46        500.000        3335.54     
  1285.26        500.000        3335.97     
  1282.05        500.000        3336.23     
  1278.85        500.000        3336.65     
  1275.64        500.000        3337.07     
  1272.44        500.000        3337.49     
  1269.23        500.000        3337.91     
  1266.03        500.000        3338.33     
  1262.82        500.000        3338.75     
  1259.62        500.000        3339.17     
  1256.41        500.000        3339.20     
  1253.21        500.000        3339.62     
  1250.00        500.000        3340.04     
  1246.79        500.000        3340.46     
  1243.59        500.000        3340.88     
  1240.38        500.000        3341.29     
  1237.18        500.000        3341.71     
  1233.97        500.000        3342.13     
  1230.77        500.000        3342.19     
  1227.56        500.000        3342.60     
  1224.36        500.000        3343.02     
  1221.15        500.000        3343.44     
  1217.95        500.000        3343.85     
  1214.74        500.000        3344.27     
  1211.54        500.000        3344.68     
  1208.33        500.000        3345.10     
  1205.13        500.000        3345.19     
  1201.92        500.000        3345.60     
  1198.72        500.000        3346.01     
  1195.51        500.000        3346.43     
  1192.31        500.000        3346.84     
  1189.10        500.000        3347.25     
  1185.90        500.000        3347.67     
  1182.69        500.000        3348.08     
  1179.49        500.000        3348.19     
  1176.28        500.000        3348.60     
  1173.08        500.000        3349.02     
  1169.87        500.000        3349.43     
  1166.67        500.000        3349.84     
  1163.46        500.000        3350.25     
  1160.26        500.000        3350.66     
  1157.05        500.000        3351.07     
  1153.85        500.000        3351.21     
  1150.64        500.000        3351.62     
  1147.44        500.000        3352.03     
  1144.23        500.000        3352.44     
  1141.03        500.000        3352.85     
  1137.82        500.000        3353.26     
  1134.62        500.000        3353.67     
  1131.41        500.000        3354.07     
  1128.21        500.000        3354.24     
  1125.00        500.000        3354.64     
  1121.79        500.000        3355.05     
  1118.59        500.000        3355.46     
  1115.38        500.000        3355.86     
  1112.18        500.000        3356.27     
  1108.97        500.000        3356.68     
  1105.77        500.000        3357.08     
  1102.56        500.000        3357.26     
  1099.36        500.000        3357.66     
  1096.15        500.000        3358.07     
  1092.95        500.000        3358.47     
  1089.74        500.000        3358.88     
  1086.54        500.000        3359.28     
  1083.33        500.000        3359.69     
  1080.13        500.000        3360.09     
  1076.92        500.000        3360.32     
  1073.72        500.000        3360.73     
  1070.51        500.000        3361.13     
  1067.31        500.000        3361.53     
  1064.10        500.000        3361.85     
  1060.90        500.000        3362.24     
  1057.69        500.000        3362.62     
  1054.49        500.000        3362.95     
  1051.28        500.000        3363.38     
  1048.08        500.000        3363.79     
  1044.87        500.000        3364.19     
  1041.67        500.000        3364.59     
  1038.46        500.000        3364.99     
  1035.26        500.000        3365.39     
  1032.05        500.000        3365.79     
  1028.85        500.000        3366.19     
  1025.64        500.000        3366.43     
  1022.44        500.000        3366.83     
  1019.23        500.000        3367.23     
  1016.03        500.000        3367.63     
  1012.82        500.000        3368.03     
  1009.62        500.000        3368.43     
  1006.41        500.000        3368.83     
  1003.21        500.000        3369.22     
  1000.00        500.000        3369.49     
