|6.6.6
Archiving\03_Data\frac/QFM_m2.5/Y98/Y98_6.tab                             
           1
T(K)    
  0.000000000000000E+000
  0.000000000000000E+000
           0
           3
T(K)           P(bar)         rho,kg/m3     
  2000.00        2500.00        3611.47     
  1997.49        2500.00        3611.84     
  1994.99        2500.00        3612.22     
  1992.48        2500.00        3612.59     
  1989.97        2500.00        3612.97     
  1987.47        2500.00        3613.34     
  1984.96        2500.00        3613.72     
  1982.46        2500.00        3614.09     
  1979.95        2500.00        3614.46     
  1977.44        2500.00        3614.84     
  1974.94        2500.00        3615.21     
  1972.43        2500.00        3615.58     
  1969.92        2500.00        3615.96     
  1967.42        2500.00        3616.33     
  1964.91        2500.00        3616.70     
  1962.41        2500.00        3617.08     
  1959.90        2500.00        3617.45     
  1957.39        2500.00        3617.82     
  1954.89        2500.00        3618.20     
  1952.38        2500.00        3618.57     
  1949.87        2500.00        3618.94     
  1947.37        2500.00        3619.31     
  1944.86        2500.00        3619.69     
  1942.36        2500.00        3620.06     
  1939.85        2500.00        3620.43     
  1937.34        2500.00        3620.80     
  1934.84        2500.00        3621.17     
  1932.33        2500.00        3621.54     
  1929.82        2500.00        3621.92     
  1927.32        2500.00        3622.29     
  1924.81        2500.00        3622.66     
  1922.31        2500.00        3623.03     
  1919.80        2500.00        3623.40     
  1917.29        2500.00        3623.77     
  1914.79        2500.00        3624.14     
  1912.28        2500.00        3624.51     
  1909.77        2500.00        3624.88     
  1907.27        2500.00        3625.25     
  1904.76        2500.00        3625.62     
  1902.26        2500.00        3625.99     
  1899.75        2500.00        3626.36     
  1897.24        2500.00        3626.73     
  1894.74        2500.00        3627.10     
  1892.23        2500.00        3627.47     
  1889.72        2500.00        3627.84     
  1887.22        2500.00        3628.21     
  1884.71        2500.00        3628.58     
  1882.21        2500.00        3628.95     
  1879.70        2500.00        3629.32     
  1877.19        2500.00        3629.69     
  1874.69        2500.00        3630.05     
  1872.18        2500.00        3630.42     
  1869.67        2500.00        3630.79     
  1867.17        2500.00        3631.16     
  1864.66        2500.00        3631.53     
  1862.16        2500.00        3631.90     
  1859.65        2500.00        3632.26     
  1857.14        2500.00        3632.63     
  1854.64        2500.00        3633.00     
  1852.13        2500.00        3633.37     
  1849.62        2500.00        3633.73     
  1847.12        2500.00        3634.10     
  1844.61        2500.00        3634.47     
  1842.11        2500.00        3634.84     
  1839.60        2500.00        3635.20     
  1837.09        2500.00        3635.57     
  1834.59        2500.00        3635.94     
  1832.08        2500.00        3636.30     
  1829.57        2500.00        3636.67     
  1827.07        2500.00        3637.03     
  1824.56        2500.00        3637.40     
  1822.06        2500.00        3637.77     
  1819.55        2500.00        3638.13     
  1817.04        2500.00        3638.50     
  1814.54        2500.00        3638.86     
  1812.03        2500.00        3639.23     
  1809.52        2500.00        3639.59     
  1807.02        2500.00        3639.96     
  1804.51        2500.00        3640.32     
  1802.01        2500.00        3640.69     
  1799.50        2500.00        3641.05     
  1796.99        2500.00        3641.42     
  1794.49        2500.00        3641.78     
  1791.98        2500.00        3642.15     
  1789.47        2500.00        3642.51     
  1786.97        2500.00        3642.88     
  1784.46        2500.00        3643.24     
  1781.95        2500.00        3643.61     
  1779.45        2500.00        3643.97     
  1776.94        2500.00        3644.33     
  1774.44        2500.00        3644.70     
  1771.93        2500.00        3645.06     
  1769.42        2500.00        3645.42     
  1766.92        2500.00        3645.79     
  1764.41        2500.00        3646.15     
  1761.90        2500.00        3646.51     
  1759.40        2500.00        3646.88     
  1756.89        2500.00        3647.24     
  1754.39        2500.00        3647.60     
  1751.88        2500.00        3647.96     
  1749.37        2500.00        3648.33     
  1746.87        2500.00        3648.69     
  1744.36        2500.00        3649.05     
  1741.85        2500.00        3649.41     
  1739.35        2500.00        3649.78     
  1736.84        2500.00        3650.14     
  1734.34        2500.00        3650.50     
  1731.83        2500.00        3650.86     
  1729.32        2500.00        3651.22     
  1726.82        2500.00        3651.58     
  1724.31        2500.00        3651.94     
  1721.80        2500.00        3652.31     
  1719.30        2500.00        3652.67     
  1716.79        2500.00        3653.03     
  1714.29        2500.00        3653.39     
  1711.78        2500.00        3653.75     
  1709.27        2500.00        3654.11     
  1706.77        2500.00        3654.47     
  1704.26        2500.00        3654.83     
  1701.75        2500.00        3660.83     
  1699.25        2500.00        3665.17     
  1696.74        2500.00        3665.48     
  1694.24        2500.00        3665.69     
  1691.73        2500.00        3666.02     
  1689.22        2500.00        3666.30     
  1686.72        2500.00        3666.61     
  1684.21        2500.00        3666.85     
  1681.70        2500.00        3692.28     
  1679.20        2500.00        3658.43     
  1676.69        2500.00        3658.79     
  1674.19        2500.00        3659.62     
  1671.68        2500.00        3668.64     
  1669.17        2500.00        3668.21     
  1666.67        2500.00        3616.82     
  1664.16        2500.00        4473.34     
  1661.65        2500.00        4469.16     
  1659.15        2500.00        4474.35     
  1656.64        2500.00        4474.91     
  1654.14        2500.00        4474.31     
  1651.63        2500.00        4475.26     
  1649.12        2500.00        3369.73     
  1646.62        2500.00        3364.88     
  1644.11        2500.00        3364.85     
  1641.60        2500.00        3365.43     
  1639.10        2500.00        3371.20     
  1636.59        2500.00        3371.81     
  1634.09        2500.00        3371.26     
  1631.58        2500.00        3379.30     
  1629.07        2500.00        3366.45     
  1626.57        2500.00        3376.04     
  1624.06        2500.00        3347.95     
  1621.55        2500.00        3281.60     
  1619.05        2500.00        3267.90     
  1616.54        2500.00        3268.51     
  1614.04        2500.00        3269.15     
  1611.53        2500.00        3270.64     
  1609.02        2500.00        3271.52     
  1606.52        2500.00        3271.73     
  1604.01        2500.00        3274.00     
  1601.50        2500.00        3274.96     
  1599.00        2500.00        3276.78     
  1596.49        2500.00        3277.73     
  1593.98        2500.00        3278.76     
  1591.48        2500.00        3279.56     
  1588.97        2500.00        3282.76     
  1586.47        2500.00        3280.35     
  1583.96        2500.00        3283.00     
  1581.45        2500.00        3284.72     
  1578.95        2500.00        3286.37     
  1576.44        2500.00        3286.32     
  1573.93        2500.00        3287.63     
  1571.43        2500.00        3288.49     
  1568.92        2500.00        3289.94     
  1566.42        2500.00        3291.10     
  1563.91        2500.00        3291.43     
  1561.40        2500.00        3293.45     
  1558.90        2500.00        3294.69     
  1556.39        2500.00        3295.07     
  1553.88        2500.00        3296.37     
  1551.38        2500.00        3304.62     
  1548.87        2500.00        3293.20     
  1546.37        2500.00        3299.53     
  1543.86        2500.00        3300.52     
  1541.35        2500.00        3301.44     
  1538.85        2500.00        3302.66     
  1536.34        2500.00        3302.72     
  1533.83        2500.00        3303.06     
  1531.33        2500.00        3305.14     
  1528.82        2500.00        3309.79     
  1526.32        2500.00        3291.38     
  1523.81        2500.00        3282.41     
  1521.30        2500.00        3284.09     
  1518.80        2500.00        3285.70     
  1516.29        2500.00        3286.66     
  1513.78        2500.00        3289.47     
  1511.28        2500.00        3290.05     
  1508.77        2500.00        3292.27     
  1506.27        2500.00        3293.76     
  1503.76        2500.00        3295.19     
  1501.25        2500.00        3296.43     
  1498.75        2500.00        3287.92     
  1496.24        2500.00        3280.20     
  1493.73        2500.00        3282.67     
  1491.23        2500.00        3285.04     
  1488.72        2500.00        3287.82     
  1486.22        2500.00        3289.84     
  1483.71        2500.00        3292.16     
  1481.20        2500.00        3294.74     
  1478.70        2500.00        3296.82     
  1476.19        2500.00        3299.55     
  1473.68        2500.00        3302.14     
  1471.18        2500.00        3304.40     
  1468.67        2500.00        3309.70     
  1466.17        2500.00        3309.57     
  1463.66        2500.00        3319.05     
  1461.15        2500.00        3321.09     
  1458.65        2500.00        3324.73     
  1456.14        2500.00        3325.87     
  1453.63        2500.00        3328.72     
  1451.13        2500.00        3330.38     
  1448.62        2500.00        3332.87     
  1446.12        2500.00        3335.25     
  1443.61        2500.00        3337.70     
  1441.10        2500.00        3164.66     
  1438.60        2500.00        3159.94     
  1436.09        2500.00        3164.02     
  1433.58        2500.00        3167.80     
  1431.08        2500.00        3173.33     
  1428.57        2500.00        3177.58     
  1426.07        2500.00        3182.15     
  1423.56        2500.00        3186.96     
  1421.05        2500.00        3191.25     
  1418.55        2500.00        3195.94     
  1416.04        2500.00        3200.49     
  1413.53        2500.00        3205.05     
  1411.03        2500.00        3209.87     
  1408.52        2500.00        3214.41     
  1406.02        2500.00        3219.19     
  1403.51        2500.00        3223.25     
  1401.00        2500.00        3228.73     
  1398.50        2500.00        3233.07     
  1395.99        2500.00        3236.35     
  1393.48        2500.00        3241.74     
  1390.98        2500.00        3246.40     
  1388.47        2500.00        3250.04     
  1385.96        2500.00        3254.49     
  1383.46        2500.00        3258.62     
  1380.95        2500.00        3262.82     
  1378.45        2500.00        3267.05     
  1375.94        2500.00        3270.91     
  1373.43        2500.00        3275.09     
  1370.93        2500.00        3279.03     
  1368.42        2500.00        3282.99     
  1365.91        2500.00        3286.67     
  1363.41        2500.00        3290.59     
  1360.90        2500.00        3294.55     
  1358.40        2500.00        3297.65     
  1355.89        2500.00        3301.91     
  1353.38        2500.00        3304.79     
  1350.88        2500.00        3352.09     
  1348.37        2500.00        3354.68     
  1345.86        2500.00        3357.14     
  1343.36        2500.00        3359.37     
  1340.85        2500.00        3361.74     
  1338.35        2500.00        3363.85     
  1335.84        2500.00        3365.82     
  1333.33        2500.00        3367.55     
  1330.83        2500.00        3369.47     
  1328.32        2500.00        3370.90     
  1325.81        2500.00        3372.08     
  1323.31        2500.00        3372.18     
  1320.80        2500.00        3375.14     
  1318.30        2500.00        3375.80     
  1315.79        2500.00        3377.40     
  1313.28        2500.00        3378.39     
  1310.78        2500.00        3379.24     
  1308.27        2500.00        3379.88     
  1305.76        2500.00        3380.56     
  1303.26        2500.00        3380.94     
  1300.75        2500.00        3381.40     
  1298.25        2500.00        3381.81     
  1295.74        2500.00        2889.17     
  1293.23        2500.00        2891.29     
  1290.73        2500.00        2898.39     
  1288.22        2500.00        2904.14     
  1285.71        2500.00        2908.67     
  1283.21        2500.00        2906.26     
  1280.70        2500.00        2879.55     
  1278.20        2500.00        2944.87     
  1275.69        2500.00        2971.65     
  1273.18        2500.00        2912.61     
  1270.68        2500.00        2925.88     
  1268.17        2500.00        2919.05     
  1265.66        2500.00        2948.96     
  1263.16        2500.00        2949.23     
  1260.65        2500.00        2921.94     
  1258.15        2500.00        2939.12     
  1255.64        2500.00        2924.84     
  1253.13        2500.00        2899.08     
  1250.63        2500.00        2880.81     
  1248.12        2500.00        2963.05     
  1245.61        2500.00        2926.16     
  1243.11        2500.00        2926.74     
  1240.60        2500.00        2739.82     
  1238.10        2500.00        2736.06     
  1235.59        2500.00        2656.74     
  1233.08        2500.00        2754.92     
  1230.58        2500.00        2702.30     
  1228.07        2500.00        2698.80     
  1225.56        2500.00        2698.93     
  1223.06        2500.00        2698.71     
  1220.55        2500.00        2698.54     
  1218.05        2500.00        2699.06     
  1215.54        2500.00        2699.05     
  1213.03        2500.00        2699.27     
  1210.53        2500.00        2699.44     
  1208.02        2500.00        2699.86     
  1205.51        2500.00        2699.70     
  1203.01        2500.00        2699.82     
  1200.50        2500.00        2699.51     
  1197.99        2500.00        2700.06     
  1195.49        2500.00        2700.40     
  1192.98        2500.00        2700.33     
  1190.48        2500.00        2700.47     
  1187.97        2500.00        2700.18     
  1185.46        2500.00        2700.31     
  1182.96        2500.00        2700.44     
  1180.45        2500.00        2700.57     
  1177.94        2500.00        2701.12     
  1175.44        2500.00        2700.84     
  1172.93        2500.00        2700.97     
  1170.43        2500.00        2701.10     
  1167.92        2500.00        2701.23     
  1165.41        2500.00        2701.78     
  1162.91        2500.00        2701.49     
  1160.40        2500.00        2702.03     
  1157.89        2500.00        2701.76     
  1155.39        2500.00        2701.89     
  1152.88        2500.00        2702.02     
  1150.38        2500.00        2702.55     
  1147.87        2500.00        2702.66     
  1145.36        2500.00        2702.80     
  1142.86        2500.00        2702.93     
  1140.35        2500.00        2703.06     
  1137.84        2500.00        2703.19     
  1135.34        2500.00        2703.33     
  1132.83        2500.00        2703.08     
  1130.33        2500.00        2703.59     
  1127.82        2500.00        2703.72     
  1125.31        2500.00        2703.85     
  1122.81        2500.00        2704.09     
  1120.30        2500.00        2704.13     
  1117.79        2500.00        2704.47     
  1115.29        2500.00        2703.99     
  1112.78        2500.00        2704.52     
  1110.28        2500.00        2704.64     
  1107.77        2500.00        2704.80     
  1105.26        2500.00        2704.92     
  1102.76        2500.00        2705.06     
  1100.25        2500.00        2705.16     
  1097.74        2500.00        2705.29     
  1095.24        2500.00        2705.42     
  1092.73        2500.00        2705.50     
  1090.23        2500.00        2705.88     
  1087.72        2500.00        2705.82     
  1085.21        2500.00        2705.95     
  1082.71        2500.00        2705.65     
  1080.20        2500.00        2705.77     
  1077.69        2500.00        2705.90     
  1075.19        2500.00        2706.45     
  1072.68        2500.00        2706.57     
  1070.18        2500.00        2706.75     
  1067.67        2500.00        2706.40     
  1065.16        2500.00        2706.52     
  1062.66        2500.00        2706.65     
  1060.15        2500.00        2707.23     
  1057.64        2500.00        2707.25     
  1055.14        2500.00        2707.30     
  1052.63        2500.00        2707.59     
  1050.13        2500.00        2707.71     
  1047.62        2500.00        2707.87     
  1045.11        2500.00        2707.99     
  1042.61        2500.00        2708.12     
  1040.10        2500.00        2707.87     
  1037.59        2500.00        2707.88     
  1035.09        2500.00        2708.00     
  1032.58        2500.00        2708.12     
  1030.08        2500.00        2708.25     
  1027.57        2500.00        2708.37     
  1025.06        2500.00        2708.50     
  1022.56        2500.00        2709.11     
  1020.05        2500.00        2709.26     
  1017.54        2500.00        2709.39     
  1015.04        2500.00        2709.50     
  1012.53        2500.00        2709.66     
  1010.03        2500.00        2710.07     
  1007.52        2500.00        2710.06     
  1005.01        2500.00        2710.18     
  1002.51        2500.00        2710.29     
  1000.00        2500.00        2710.41     
