|6.6.6
Archiving\03_Data\eq/QFM_m0.25/GRV/GRV_3.tab                              
           1
T(K)    
  0.000000000000000E+000
  0.000000000000000E+000
           0
           9
T(K)           P(bar)         melt(TH)       pxmn           Sp(TH)         O(HP)          Opx(TH)        Cpx(TH)        Cpx(TH)       
  2000.00        2500.00        99.3224       0.677584                 NaN            NaN            NaN            NaN            NaN
  1996.79        2500.00        99.3223       0.677655                 NaN            NaN            NaN            NaN            NaN
  1993.59        2500.00        99.3223       0.677726                 NaN            NaN            NaN            NaN            NaN
  1990.38        2500.00        99.3222       0.677798                 NaN            NaN            NaN            NaN            NaN
  1987.18        2500.00        99.3221       0.677869                 NaN            NaN            NaN            NaN            NaN
  1983.97        2500.00        99.3221       0.677941                 NaN            NaN            NaN            NaN            NaN
  1980.77        2500.00        99.3220       0.678012                 NaN            NaN            NaN            NaN            NaN
  1977.56        2500.00        99.3219       0.678084                 NaN            NaN            NaN            NaN            NaN
  1974.36        2500.00        99.3218       0.678156                 NaN            NaN            NaN            NaN            NaN
  1971.15        2500.00        99.3218       0.678227                 NaN            NaN            NaN            NaN            NaN
  1967.95        2500.00        99.3217       0.678299                 NaN            NaN            NaN            NaN            NaN
  1964.74        2500.00        99.3216       0.678370                 NaN            NaN            NaN            NaN            NaN
  1961.54        2500.00        99.3216       0.678442                 NaN            NaN            NaN            NaN            NaN
  1958.33        2500.00        99.3215       0.678513                 NaN            NaN            NaN            NaN            NaN
  1955.13        2500.00        99.3214       0.678585                 NaN            NaN            NaN            NaN            NaN
  1951.92        2500.00        99.3213       0.678657                 NaN            NaN            NaN            NaN            NaN
  1948.72        2500.00        99.3213       0.678729                 NaN            NaN            NaN            NaN            NaN
  1945.51        2500.00        99.3212       0.678800                 NaN            NaN            NaN            NaN            NaN
  1942.31        2500.00        99.3211       0.678872                 NaN            NaN            NaN            NaN            NaN
  1939.10        2500.00        99.3211       0.678944                 NaN            NaN            NaN            NaN            NaN
  1935.90        2500.00        99.3210       0.679015                 NaN            NaN            NaN            NaN            NaN
  1932.69        2500.00        99.3209       0.679087                 NaN            NaN            NaN            NaN            NaN
  1929.49        2500.00        99.3208       0.679159                 NaN            NaN            NaN            NaN            NaN
  1926.28        2500.00        99.3208       0.679231                 NaN            NaN            NaN            NaN            NaN
  1923.08        2500.00        99.3207       0.679303                 NaN            NaN            NaN            NaN            NaN
  1919.87        2500.00        99.3206       0.679375                 NaN            NaN            NaN            NaN            NaN
  1916.67        2500.00        99.3206       0.679446                 NaN            NaN            NaN            NaN            NaN
  1913.46        2500.00        99.3205       0.679518                 NaN            NaN            NaN            NaN            NaN
  1910.26        2500.00        99.3204       0.679590                 NaN            NaN            NaN            NaN            NaN
  1907.05        2500.00        99.3203       0.679662                 NaN            NaN            NaN            NaN            NaN
  1903.85        2500.00        99.3203       0.679734                 NaN            NaN            NaN            NaN            NaN
  1900.64        2500.00        99.3202       0.679806                 NaN            NaN            NaN            NaN            NaN
  1897.44        2500.00        99.3201       0.679878                 NaN            NaN            NaN            NaN            NaN
  1894.23        2500.00        99.3201       0.679950                 NaN            NaN            NaN            NaN            NaN
  1891.03        2500.00        99.3200       0.680022                 NaN            NaN            NaN            NaN            NaN
  1887.82        2500.00        99.3199       0.680094                 NaN            NaN            NaN            NaN            NaN
  1884.62        2500.00        99.3198       0.680165                 NaN            NaN            NaN            NaN            NaN
  1881.41        2500.00        99.3198       0.680238                 NaN            NaN            NaN            NaN            NaN
  1878.21        2500.00        99.3197       0.680310                 NaN            NaN            NaN            NaN            NaN
  1875.00        2500.00        99.3196       0.680382                 NaN            NaN            NaN            NaN            NaN
  1871.79        2500.00        99.3195       0.680454                 NaN            NaN            NaN            NaN            NaN
  1868.59        2500.00        99.3195       0.680526                 NaN            NaN            NaN            NaN            NaN
  1865.38        2500.00        99.3194       0.680598                 NaN            NaN            NaN            NaN            NaN
  1862.18        2500.00        99.3193       0.680669                 NaN            NaN            NaN            NaN            NaN
  1858.97        2500.00        99.3193       0.680741                 NaN            NaN            NaN            NaN            NaN
  1855.77        2500.00        99.3192       0.680813                 NaN            NaN            NaN            NaN            NaN
  1852.56        2500.00        99.3191       0.680886                 NaN            NaN            NaN            NaN            NaN
  1849.36        2500.00        99.3190       0.680958                 NaN            NaN            NaN            NaN            NaN
  1846.15        2500.00        99.3190       0.681030                 NaN            NaN            NaN            NaN            NaN
  1842.95        2500.00        99.3189       0.681102                 NaN            NaN            NaN            NaN            NaN
  1839.74        2500.00        99.3188       0.681174                 NaN            NaN            NaN            NaN            NaN
  1836.54        2500.00        99.3185       0.681247       0.261167E-003            NaN            NaN            NaN            NaN
  1833.33        2500.00        99.3032       0.681338       0.154130E-001            NaN            NaN            NaN            NaN
  1830.13        2500.00        99.2883       0.681429       0.302648E-001            NaN            NaN            NaN            NaN
  1826.92        2500.00        99.2734       0.681520       0.451205E-001            NaN            NaN            NaN            NaN
  1823.72        2500.00        99.2584       0.681611       0.599801E-001            NaN            NaN            NaN            NaN
  1820.51        2500.00        99.2435       0.681701       0.748437E-001            NaN            NaN            NaN            NaN
  1817.31        2500.00        99.2292       0.681791       0.890133E-001            NaN            NaN            NaN            NaN
  1814.10        2500.00        99.2149       0.681880       0.103187                 NaN            NaN            NaN            NaN
  1810.90        2500.00        99.2007       0.681970       0.117364                 NaN            NaN            NaN            NaN
  1807.69        2500.00        99.1864       0.682059       0.131544                 NaN            NaN            NaN            NaN
  1804.49        2500.00        99.1721       0.682149       0.145729                 NaN            NaN            NaN            NaN
  1801.28        2500.00        99.1578       0.682239       0.159917                 NaN            NaN            NaN            NaN
  1798.08        2500.00        99.1436       0.682328       0.174108                 NaN            NaN            NaN            NaN
  1794.87        2500.00        99.1293       0.682418       0.188304                 NaN            NaN            NaN            NaN
  1791.67        2500.00        99.1158       0.682506       0.201645                 NaN            NaN            NaN            NaN
  1788.46        2500.00        99.1024       0.682593       0.214989                 NaN            NaN            NaN            NaN
  1785.26        2500.00        99.0890       0.682681       0.228336                 NaN            NaN            NaN            NaN
  1782.05        2500.00        99.0755       0.682769       0.241687                 NaN            NaN            NaN            NaN
  1778.85        2500.00        99.0621       0.682857       0.255042                 NaN            NaN            NaN            NaN
  1775.64        2500.00        99.0487       0.682944       0.268399                 NaN            NaN            NaN            NaN
  1772.44        2500.00        99.0352       0.683032       0.281761                 NaN            NaN            NaN            NaN
  1769.23        2500.00        99.0218       0.683120       0.295125                 NaN            NaN            NaN            NaN
  1766.03        2500.00        99.0089       0.683207       0.307857                 NaN            NaN            NaN            NaN
  1762.82        2500.00        98.9961       0.683293       0.320593                 NaN            NaN            NaN            NaN
  1759.62        2500.00        98.9833       0.683380       0.333331                 NaN            NaN            NaN            NaN
  1756.41        2500.00        98.9705       0.683466       0.346073                 NaN            NaN            NaN            NaN
  1753.21        2500.00        98.7190       0.683641       0.358211       0.239134                 NaN            NaN            NaN
  1750.00        2500.00        97.9896       0.683995       0.369529       0.956907                 NaN            NaN            NaN
  1746.79        2500.00        97.2560       0.684348       0.380741        1.67888                 NaN            NaN            NaN
  1743.59        2500.00        96.5218       0.684699       0.391963        2.40156                 NaN            NaN            NaN
  1740.38        2500.00        95.7783       0.685053       0.402588        3.13405                 NaN            NaN            NaN
  1737.18        2500.00        95.0341       0.685406       0.413223        3.86726                 NaN            NaN            NaN
  1733.97        2500.00        94.2892       0.685756       0.423867        4.60119                 NaN            NaN            NaN
  1730.77        2500.00        93.5435       0.686105       0.434521        5.33583                 NaN            NaN            NaN
  1727.56        2500.00        92.7972       0.686451       0.445184        6.07117                 NaN            NaN            NaN
  1724.36        2500.00        92.0501       0.686796       0.455856        6.80720                 NaN            NaN            NaN
  1721.15        2500.00        91.3024       0.687138       0.466538        7.54393                 NaN            NaN            NaN
  1717.95        2500.00        90.5540       0.687478       0.477228        8.28133                 NaN            NaN            NaN
  1714.74        2500.00        89.8009       0.687821       0.487066        9.02421                 NaN            NaN            NaN
  1711.54        2500.00        89.0472       0.688162       0.496913        9.76776                 NaN            NaN            NaN
  1708.33        2500.00        88.2927       0.688500       0.506767        10.5120                 NaN            NaN            NaN
  1705.13        2500.00        87.5376       0.688836       0.516629        11.2569                 NaN            NaN            NaN
  1701.92        2500.00        86.7819       0.689170       0.526499        12.0024                 NaN            NaN            NaN
  1698.72        2500.00        86.0255       0.689501       0.536376        12.7487                 NaN            NaN            NaN
  1695.51        2500.00        85.2684       0.689831       0.546261        13.4955                 NaN            NaN            NaN
  1692.31        2500.00        84.5107       0.690158       0.556154        14.2430                 NaN            NaN            NaN
  1689.10        2500.00        83.7709       0.690478       0.565204        14.9734                 NaN            NaN            NaN
  1685.90        2500.00        83.0304       0.690795       0.574260        15.7045                 NaN            NaN            NaN
  1682.69        2500.00        82.2894       0.691110       0.583323        16.4361                 NaN            NaN            NaN
  1679.49        2500.00        81.5478       0.691423       0.592391        17.1683                 NaN            NaN            NaN
  1676.28        2500.00        80.8057       0.691733       0.601465        17.9011                 NaN            NaN            NaN
  1673.08        2500.00        80.0629       0.692041       0.610546        18.6345                 NaN            NaN            NaN
  1669.87        2500.00        79.3196       0.692347       0.619631        19.3684                 NaN            NaN            NaN
  1666.67        2500.00        78.5758       0.692649       0.628723        20.1028                 NaN            NaN            NaN
  1663.46        2500.00        76.9515       0.693789       0.637610        20.5903        1.12681                 NaN            NaN
  1660.26        2500.00        74.7160       0.695522       0.646246        20.9024        3.03982                 NaN            NaN
  1657.05        2500.00        72.6335       0.697142       0.653681        21.1873        4.82834                 NaN            NaN
  1653.85        2500.00        70.5414       0.698767       0.661149        21.4735        6.62513                 NaN            NaN
  1650.64        2500.00        68.7010       0.700212       0.666792        21.7194        8.21258                 NaN            NaN
  1647.44        2500.00        66.8532       0.701662       0.672456        21.9662        9.80651                 NaN            NaN
  1644.23        2500.00        64.9978       0.703115       0.678142        22.2140        11.4070                 NaN            NaN
  1641.03        2500.00        63.1349       0.704571       0.683849        22.4627        13.0140                 NaN            NaN
  1637.82        2500.00        61.6470       0.705764       0.686434        22.6488        14.3120                 NaN            NaN
  1634.62        2500.00        60.1542       0.706958       0.689027        22.8354        15.6144                 NaN            NaN
  1631.41        2500.00        58.6565       0.708155       0.691628        23.0226        16.9211                 NaN            NaN
  1628.21        2500.00        57.1538       0.709354       0.694235        23.2105        18.2321                 NaN            NaN
  1625.00        2500.00        55.6462       0.710556       0.696849        23.3988        19.5475                 NaN            NaN
  1621.79        2500.00        54.1337       0.711760       0.699470        23.5878        20.8673                 NaN            NaN
  1618.59        2500.00        52.6162       0.712966       0.702099        23.7773        22.1915                 NaN            NaN
  1615.38        2500.00        51.0937       0.714174       0.704735        23.9674        23.5200                 NaN            NaN
  1612.18        2500.00        49.8863       0.715165       0.703716        24.1040        24.5909                 NaN            NaN
  1608.97        2500.00        48.6756       0.716157       0.702694        24.2409        25.6646                 NaN            NaN
  1605.77        2500.00        47.4618       0.717150       0.701667        24.3781        26.7413                 NaN            NaN
  1602.56        2500.00        46.2448       0.718145       0.700637        24.5156        27.8208                 NaN            NaN
  1599.36        2500.00        45.0245       0.719141       0.699602        24.6535        28.9033                 NaN            NaN
  1596.15        2500.00        43.8009       0.720139       0.698563        24.7918        29.9886                 NaN            NaN
  1592.95        2500.00        42.5741       0.721138       0.697520        24.9303        31.0769                 NaN            NaN
  1589.74        2500.00        41.3441       0.722139       0.696472        25.0692        32.1681                 NaN            NaN
  1586.54        2500.00        40.2637       0.723042       0.690712        25.1850        33.1376                 NaN            NaN
  1583.33        2500.00        39.1807       0.723948       0.684936        25.3010        34.1094                 NaN            NaN
  1580.13        2500.00        38.0952       0.724854       0.679145        25.4172        35.0836                 NaN            NaN
  1576.92        2500.00        37.0071       0.725762       0.673339        25.5337        36.0601                 NaN            NaN
  1573.72        2500.00        35.9164       0.726671       0.667517        25.6505        37.0389                 NaN            NaN
  1570.51        2500.00        34.8232       0.727581       0.661680        25.7675        38.0200                 NaN            NaN
  1567.31        2500.00        33.7274       0.728492       0.655827        25.8848        39.0036                 NaN            NaN
  1564.10        2500.00        32.6289       0.729404       0.649958        26.0023        39.9894                 NaN            NaN
  1560.90        2500.00        31.5576       0.730308       0.639061        26.1209        40.9521                 NaN            NaN
  1557.69        2500.00        30.4839       0.731213       0.628136        26.2397        41.9171                 NaN            NaN
  1554.49        2500.00        29.4076       0.732120       0.617184        26.3588        42.8843                 NaN            NaN
  1551.28        2500.00        28.3289       0.733028       0.606203        26.4782        43.8537                 NaN            NaN
  1548.08        2500.00        27.0212       0.734153       0.592518        26.6359        44.6472       0.369113                 NaN
  1544.87        2500.00        25.1722       0.735787       0.578531        26.8766        44.9707        1.66622                 NaN
  1541.67        2500.00        23.5282       0.737251       0.563845        27.0892        45.3019        2.77964                 NaN
  1538.46        2500.00        21.8778       0.738719       0.549100        27.3026        45.6344        3.89745                 NaN
