|6.6.6
Archiving\03_Data\fracLP/QFM_m1.5/TIS/TIS_6.tab                           
           1
T(K)    
  0.000000000000000E+000
  0.000000000000000E+000
           0
           3
T(K)           P(bar)         rho,kg/m3     
  2000.00        500.000        3584.12     
  1997.49        500.000        3584.50     
  1994.99        500.000        3584.87     
  1992.48        500.000        3585.25     
  1989.97        500.000        3585.62     
  1987.47        500.000        3586.00     
  1984.96        500.000        3586.37     
  1982.46        500.000        3586.75     
  1979.95        500.000        3587.12     
  1977.44        500.000        3587.50     
  1974.94        500.000        3587.87     
  1972.43        500.000        3588.25     
  1969.92        500.000        3588.62     
  1967.42        500.000        3589.00     
  1964.91        500.000        3589.37     
  1962.41        500.000        3589.75     
  1959.90        500.000        3590.12     
  1957.39        500.000        3590.49     
  1954.89        500.000        3590.87     
  1952.38        500.000        3591.24     
  1949.87        500.000        3591.61     
  1947.37        500.000        3591.99     
  1944.86        500.000        3592.36     
  1942.36        500.000        3592.73     
  1939.85        500.000        3593.11     
  1937.34        500.000        3593.48     
  1934.84        500.000        3593.85     
  1932.33        500.000        3594.22     
  1929.82        500.000        3594.60     
  1927.32        500.000        3594.97     
  1924.81        500.000        3595.34     
  1922.31        500.000        3595.71     
  1919.80        500.000        3596.08     
  1917.29        500.000        3596.46     
  1914.79        500.000        3596.83     
  1912.28        500.000        3597.20     
  1909.77        500.000        3597.57     
  1907.27        500.000        3597.94     
  1904.76        500.000        3598.31     
  1902.26        500.000        3598.68     
  1899.75        500.000        3599.05     
  1897.24        500.000        3599.42     
  1894.74        500.000        3599.79     
  1892.23        500.000        3600.17     
  1889.72        500.000        3600.54     
  1887.22        500.000        3600.91     
  1884.71        500.000        3601.28     
  1882.21        500.000        3601.65     
  1879.70        500.000        3602.02     
  1877.19        500.000        3602.39     
  1874.69        500.000        3602.75     
  1872.18        500.000        3603.12     
  1869.67        500.000        3603.49     
  1867.17        500.000        3603.86     
  1864.66        500.000        3604.23     
  1862.16        500.000        3604.60     
  1859.65        500.000        3604.97     
  1857.14        500.000        3605.34     
  1854.64        500.000        3605.71     
  1852.13        500.000        3606.07     
  1849.62        500.000        3606.44     
  1847.12        500.000        3606.81     
  1844.61        500.000        3607.18     
  1842.11        500.000        3607.55     
  1839.60        500.000        3607.91     
  1837.09        500.000        3608.28     
  1834.59        500.000        3608.65     
  1832.08        500.000        3609.02     
  1829.57        500.000        3609.38     
  1827.07        500.000        3609.75     
  1824.56        500.000        3610.12     
  1822.06        500.000        3610.49     
  1819.55        500.000        3610.85     
  1817.04        500.000        3611.22     
  1814.54        500.000        3611.59     
  1812.03        500.000        3611.95     
  1809.52        500.000        3612.32     
  1807.02        500.000        3612.68     
  1804.51        500.000        3613.05     
  1802.01        500.000        3613.42     
  1799.50        500.000        3613.78     
  1796.99        500.000        3614.15     
  1794.49        500.000        3614.51     
  1791.98        500.000        3614.88     
  1789.47        500.000        3615.24     
  1786.97        500.000        3615.61     
  1784.46        500.000        3615.97     
  1781.95        500.000        3616.34     
  1779.45        500.000        3616.70     
  1776.94        500.000        3617.07     
  1774.44        500.000        3617.43     
  1771.93        500.000        3617.80     
  1769.42        500.000        3618.16     
  1766.92        500.000        3618.53     
  1764.41        500.000        3618.89     
  1761.90        500.000        3619.25     
  1759.40        500.000        3619.62     
  1756.89        500.000        3619.98     
  1754.39        500.000        3620.34     
  1751.88        500.000        3620.71     
  1749.37        500.000        3621.07     
  1746.87        500.000        3621.43     
  1744.36        500.000        3621.80     
  1741.85        500.000        3622.16     
  1739.35        500.000        3622.52     
  1736.84        500.000        3622.89     
  1734.34        500.000        3623.25     
  1731.83        500.000        3623.61     
  1729.32        500.000        3623.97     
  1726.82        500.000        3624.33     
  1724.31        500.000        3624.70     
  1721.80        500.000        3625.06     
  1719.30        500.000        3625.42     
  1716.79        500.000        3625.78     
  1714.29        500.000        3626.14     
  1711.78        500.000        3626.51     
  1709.27        500.000        3626.87     
  1706.77        500.000        3627.23     
  1704.26        500.000        3627.59     
  1701.75        500.000        3627.95     
  1699.25        500.000        3628.31     
  1696.74        500.000        3628.67     
  1694.24        500.000        3629.03     
  1691.73        500.000        3629.39     
  1689.22        500.000        3629.75     
  1686.72        500.000        3630.11     
  1684.21        500.000        3630.47     
  1681.70        500.000        3569.84     
  1679.20        500.000        2951.64     
  1676.69        500.000        4512.25     
  1674.19        500.000        4512.40     
  1671.68        500.000        2953.13     
  1669.17        500.000        4512.71     
  1666.67        500.000        4513.76     
  1664.16        500.000        4513.55     
  1661.65        500.000        4514.49     
  1659.15        500.000        4514.58     
  1656.64        500.000        4515.01     
  1654.14        500.000        4514.25     
  1651.63        500.000        4514.82     
  1649.12        500.000        4515.88     
  1646.62        500.000        4515.81     
  1644.11        500.000        4515.61     
  1641.60        500.000        4516.02     
  1639.10        500.000        3461.88     
  1636.59        500.000        3400.92     
  1634.09        500.000        3382.83     
  1631.58        500.000        3395.78     
  1629.07        500.000        3397.89     
  1626.57        500.000        3400.57     
  1624.06        500.000        3406.43     
  1621.55        500.000        3405.05     
  1619.05        500.000        3409.61     
  1616.54        500.000        3409.27     
  1614.04        500.000        3411.06     
  1611.53        500.000        3413.71     
  1609.02        500.000        3416.46     
  1606.52        500.000        3417.67     
  1604.01        500.000        3418.98     
  1601.50        500.000        3421.90     
  1599.00        500.000        3424.23     
  1596.49        500.000        3425.86     
  1593.98        500.000        3428.87     
  1591.48        500.000        3429.67     
  1588.97        500.000        3428.20     
  1586.47        500.000        3435.46     
  1583.96        500.000        3436.99     
  1581.45        500.000        3439.32     
  1578.95        500.000        3442.13     
  1576.44        500.000        3443.11     
  1573.93        500.000        3446.76     
  1571.43        500.000        3452.15     
  1568.92        500.000        3452.76     
  1566.42        500.000        3454.88     
  1563.91        500.000        2911.79     
  1561.40        500.000        2912.29     
  1558.90        500.000        3444.57     
  1556.39        500.000        3461.34     
  1553.88        500.000        3464.09     
  1551.38        500.000        3465.39     
  1548.87        500.000        3467.69     
  1546.37        500.000        3470.04     
  1543.86        500.000        3471.57     
  1541.35        500.000        3473.61     
  1538.85        500.000        3479.03     
  1536.34        500.000        3467.74     
  1533.83        500.000        3479.63     
  1531.33        500.000        3482.59     
  1528.82        500.000        3484.62     
  1526.32        500.000        3485.64     
  1523.81        500.000        3488.93     
  1521.30        500.000        3490.79     
  1518.80        500.000        3493.74     
  1516.29        500.000        3495.46     
  1513.78        500.000        3497.08     
  1511.28        500.000        3499.72     
  1508.77        500.000        3501.68     
  1506.27        500.000        3504.16     
  1503.76        500.000        3328.52     
  1501.25        500.000        3317.14     
  1498.75        500.000        3318.10     
  1496.24        500.000        3320.18     
  1493.73        500.000        3321.44     
  1491.23        500.000        3323.45     
  1488.72        500.000        3322.79     
  1486.22        500.000        3324.13     
  1483.71        500.000        3329.62     
  1481.20        500.000        3326.22     
  1478.70        500.000        3325.34     
  1476.19        500.000        3313.65     
  1473.68        500.000        3315.42     
  1471.18        500.000        3317.52     
  1468.67        500.000        3319.01     
  1466.17        500.000        3302.76     
  1463.66        500.000        3298.08     
  1461.15        500.000        3300.88     
  1458.65        500.000        3303.15     
  1456.14        500.000        3305.75     
  1453.63        500.000        3308.63     
  1451.13        500.000        3311.27     
  1448.62        500.000        3313.93     
  1446.12        500.000        3316.63     
  1443.61        500.000        3319.27     
  1441.10        500.000        3321.93     
  1438.60        500.000        3324.70     
  1436.09        500.000        3328.04     
  1433.58        500.000        3332.13     
  1431.08        500.000        3334.59     
  1428.57        500.000        3337.13     
  1426.07        500.000        3339.60     
  1423.56        500.000        3342.54     
  1421.05        500.000        3344.91     
  1418.55        500.000        3347.69     
  1416.04        500.000        3350.33     
  1413.53        500.000        3353.34     
  1411.03        500.000        3356.12     
  1408.52        500.000        3359.01     
  1406.02        500.000        3361.67     
  1403.51        500.000        3365.38     
  1401.00        500.000        3367.16     
  1398.50        500.000        3198.58     
  1395.99        500.000        3176.55     
  1393.48        500.000        3180.81     
  1390.98        500.000        3184.43     
  1388.47        500.000        3188.06     
  1385.96        500.000        3191.70     
  1383.46        500.000        3195.68     
  1380.95        500.000        3199.45     
  1378.45        500.000        3204.16     
  1375.94        500.000        3235.19     
  1373.43        500.000        3241.02     
  1370.93        500.000        3245.96     
  1368.42        500.000        3250.83     
  1365.91        500.000        3256.04     
  1363.41        500.000        3261.04     
  1360.90        500.000        3265.92     
  1358.40        500.000        3270.88     
  1355.89        500.000        3275.05     
  1353.38        500.000        3279.67     
  1350.88        500.000        3283.83     
  1348.37        500.000        3288.26     
  1345.86        500.000        3292.07     
  1343.36        500.000        3296.03     
  1340.85        500.000        3299.89     
  1338.35        500.000        3305.24     
  1335.84        500.000        3307.39     
  1333.33        500.000        3313.78     
  1330.83        500.000        3314.81     
  1328.32        500.000        3318.75     
  1325.81        500.000        3321.95     
  1323.31        500.000        3351.64     
  1320.80        500.000        3372.90     
  1318.30        500.000        3375.94     
  1315.79        500.000        3378.47     
  1313.28        500.000        3380.02     
  1310.78        500.000        3383.64     
  1308.27        500.000        3385.77     
  1305.76        500.000        3388.25     
  1303.26        500.000        3390.07     
  1300.75        500.000        3391.95     
  1298.25        500.000        3394.49     
  1295.74        500.000        3396.31     
  1293.23        500.000        3398.27     
  1290.73        500.000        3400.14     
  1288.22        500.000        3401.31     
  1285.71        500.000        3403.17     
  1283.21        500.000        3404.61     
  1280.70        500.000        3406.36     
  1278.20        500.000        3407.86     
  1275.69        500.000        3408.96     
  1273.18        500.000        3410.18     
  1270.68        500.000        3411.37     
  1268.17        500.000        3412.56     
  1265.66        500.000        3413.85     
  1263.16        500.000        3414.40     
  1260.65        500.000        3048.56     
  1258.15        500.000        2887.48     
  1255.64        500.000        2889.96     
  1253.13        500.000        2892.08     
  1250.63        500.000        2893.89     
  1248.12        500.000        2895.08     
  1245.61        500.000        2896.25     
  1243.11        500.000        2897.07     
  1240.60        500.000        2897.16     
  1238.10        500.000        2897.31     
  1235.59        500.000        2897.15     
  1233.08        500.000        2896.75     
  1230.58        500.000        2896.16     
  1228.07        500.000        2895.32     
  1225.56        500.000        2894.38     
  1223.06        500.000        2893.26     
  1220.55        500.000        2891.69     
  1218.05        500.000        2889.66     
  1215.54        500.000        2721.19     
  1213.03        500.000        2695.31     
  1210.53        500.000        2694.99     
  1208.02        500.000        2692.84     
  1205.51        500.000        2688.23     
  1203.01        500.000        2687.76     
  1200.50        500.000        2766.66     
  1197.99        500.000        2687.42     
  1195.49        500.000        2668.18     
  1192.98        500.000        2730.35     
  1190.48        500.000        2669.02     
  1187.97        500.000        2644.11     
  1185.46        500.000        2635.97     
  1182.96        500.000        2636.04     
  1180.45        500.000        2636.26     
  1177.94        500.000        2640.35     
  1175.44        500.000        2640.44     
  1172.93        500.000        2636.32     
  1170.43        500.000        2640.67     
  1167.92        500.000        2640.82     
  1165.41        500.000        2636.65     
  1162.91        500.000        2636.63     
  1160.40        500.000        2636.70     
  1157.89        500.000        2636.78     
  1155.39        500.000        2636.83     
  1152.88        500.000        2636.96     
  1150.38        500.000        2637.03     
  1147.87        500.000        2637.11     
  1145.36        500.000        2637.21     
  1142.86        500.000        2637.27     
  1140.35        500.000        2637.35     
  1137.84        500.000        2637.50     
  1135.34        500.000        2637.56     
  1132.83        500.000        2637.65     
  1130.33        500.000        2637.68     
  1127.82        500.000        2637.78     
  1125.31        500.000        2637.86     
  1122.81        500.000        2637.95     
  1120.30        500.000        2638.04     
  1117.79        500.000        2638.13     
  1115.29        500.000        2638.22     
  1112.78        500.000        2638.31     
  1110.28        500.000        2638.39     
  1107.77        500.000        2638.48     
  1105.26        500.000        2638.58     
  1102.76        500.000        2638.64     
  1100.25        500.000        2638.73     
  1097.74        500.000        2638.81     
  1095.24        500.000        2638.90     
  1092.73        500.000        2638.99     
  1090.23        500.000        2639.08     
  1087.72        500.000        2639.17     
  1085.21        500.000        2639.26     
  1082.71        500.000        2639.35     
  1080.20        500.000        2639.44     
  1077.69        500.000        2639.53     
  1075.19        500.000        2639.62     
  1072.68        500.000        2639.71     
  1070.18        500.000        2639.80     
  1067.67        500.000        2639.89     
  1065.16        500.000        2639.98     
  1062.66        500.000        2640.07     
  1060.15        500.000        2640.16     
  1057.64        500.000        2640.26     
  1055.14        500.000        2640.52     
  1052.63        500.000        2640.44     
  1050.13        500.000        2640.53     
  1047.62        500.000        2640.62     
  1045.11        500.000        2640.71     
  1042.61        500.000        2640.80     
  1040.10        500.000        2640.90     
  1037.59        500.000        2641.14     
  1035.09        500.000        2641.08     
  1032.58        500.000        2641.17     
  1030.08        500.000        2641.26     
  1027.57        500.000        2641.36     
  1025.06        500.000        2641.49     
  1022.56        500.000        2641.56     
  1020.05        500.000        2641.67     
  1017.54        500.000        2641.76     
  1015.04        500.000        2641.87     
  1012.53        500.000        2641.91     
  1010.03        500.000        2642.05     
  1007.52        500.000        2642.15     
  1005.01        500.000        2642.24     
  1002.51        500.000        2642.28     
  1000.00        500.000        2642.37     
