|6.6.6
Archiving\03_Data\frac/QFM_m1.25/Y98/Y98_6.tab                            
           1
T(K)    
  0.000000000000000E+000
  0.000000000000000E+000
           0
           3
T(K)           P(bar)         rho,kg/m3     
  2000.00        2500.00        3611.47     
  1997.49        2500.00        3611.84     
  1994.99        2500.00        3612.22     
  1992.48        2500.00        3612.59     
  1989.97        2500.00        3612.97     
  1987.47        2500.00        3613.34     
  1984.96        2500.00        3613.72     
  1982.46        2500.00        3614.09     
  1979.95        2500.00        3614.46     
  1977.44        2500.00        3614.84     
  1974.94        2500.00        3615.21     
  1972.43        2500.00        3615.58     
  1969.92        2500.00        3615.96     
  1967.42        2500.00        3616.33     
  1964.91        2500.00        3616.70     
  1962.41        2500.00        3617.08     
  1959.90        2500.00        3617.45     
  1957.39        2500.00        3617.82     
  1954.89        2500.00        3618.20     
  1952.38        2500.00        3618.57     
  1949.87        2500.00        3618.94     
  1947.37        2500.00        3619.31     
  1944.86        2500.00        3619.69     
  1942.36        2500.00        3620.06     
  1939.85        2500.00        3620.43     
  1937.34        2500.00        3620.80     
  1934.84        2500.00        3621.17     
  1932.33        2500.00        3621.54     
  1929.82        2500.00        3621.92     
  1927.32        2500.00        3622.29     
  1924.81        2500.00        3622.66     
  1922.31        2500.00        3623.03     
  1919.80        2500.00        3623.40     
  1917.29        2500.00        3623.77     
  1914.79        2500.00        3624.14     
  1912.28        2500.00        3624.51     
  1909.77        2500.00        3624.88     
  1907.27        2500.00        3625.25     
  1904.76        2500.00        3625.62     
  1902.26        2500.00        3625.99     
  1899.75        2500.00        3626.36     
  1897.24        2500.00        3626.73     
  1894.74        2500.00        3627.10     
  1892.23        2500.00        3627.47     
  1889.72        2500.00        3627.84     
  1887.22        2500.00        3628.21     
  1884.71        2500.00        3628.58     
  1882.21        2500.00        3628.95     
  1879.70        2500.00        3629.32     
  1877.19        2500.00        3629.69     
  1874.69        2500.00        3630.05     
  1872.18        2500.00        3630.42     
  1869.67        2500.00        3630.79     
  1867.17        2500.00        3631.16     
  1864.66        2500.00        3631.53     
  1862.16        2500.00        3631.90     
  1859.65        2500.00        3632.26     
  1857.14        2500.00        3632.63     
  1854.64        2500.00        3633.00     
  1852.13        2500.00        3633.37     
  1849.62        2500.00        3633.73     
  1847.12        2500.00        3634.10     
  1844.61        2500.00        3634.47     
  1842.11        2500.00        3634.84     
  1839.60        2500.00        3635.20     
  1837.09        2500.00        3635.57     
  1834.59        2500.00        3635.94     
  1832.08        2500.00        3636.30     
  1829.57        2500.00        3636.67     
  1827.07        2500.00        3637.03     
  1824.56        2500.00        3637.40     
  1822.06        2500.00        3637.77     
  1819.55        2500.00        3638.13     
  1817.04        2500.00        3638.50     
  1814.54        2500.00        3638.86     
  1812.03        2500.00        3639.23     
  1809.52        2500.00        3639.59     
  1807.02        2500.00        3639.96     
  1804.51        2500.00        3640.32     
  1802.01        2500.00        3640.69     
  1799.50        2500.00        3641.05     
  1796.99        2500.00        3641.42     
  1794.49        2500.00        3641.78     
  1791.98        2500.00        3642.15     
  1789.47        2500.00        3642.51     
  1786.97        2500.00        3642.88     
  1784.46        2500.00        3643.24     
  1781.95        2500.00        3643.61     
  1779.45        2500.00        3643.97     
  1776.94        2500.00        3644.33     
  1774.44        2500.00        3644.70     
  1771.93        2500.00        3645.06     
  1769.42        2500.00        3645.42     
  1766.92        2500.00        3645.79     
  1764.41        2500.00        3646.15     
  1761.90        2500.00        3646.51     
  1759.40        2500.00        3646.88     
  1756.89        2500.00        3647.24     
  1754.39        2500.00        3647.60     
  1751.88        2500.00        3647.96     
  1749.37        2500.00        3648.33     
  1746.87        2500.00        3648.69     
  1744.36        2500.00        3649.05     
  1741.85        2500.00        3649.41     
  1739.35        2500.00        3649.78     
  1736.84        2500.00        3650.14     
  1734.34        2500.00        3650.50     
  1731.83        2500.00        3650.86     
  1729.32        2500.00        3651.22     
  1726.82        2500.00        3651.58     
  1724.31        2500.00        3651.94     
  1721.80        2500.00        3652.31     
  1719.30        2500.00        3652.67     
  1716.79        2500.00        3653.03     
  1714.29        2500.00        3653.39     
  1711.78        2500.00        3561.62     
  1709.27        2500.00        2920.96     
  1706.77        2500.00        4472.02     
  1704.26        2500.00        4472.92     
  1701.75        2500.00        4472.46     
  1699.25        2500.00        4473.98     
  1696.74        2500.00        4472.35     
  1694.24        2500.00        4473.30     
  1691.73        2500.00        4473.73     
  1689.22        2500.00        4474.11     
  1686.72        2500.00        4475.13     
  1684.21        2500.00        4474.55     
  1681.70        2500.00        4474.66     
  1679.20        2500.00        4475.49     
  1676.69        2500.00        4476.46     
  1674.19        2500.00        4475.03     
  1671.68        2500.00        4476.74     
  1669.17        2500.00        4475.74     
  1666.67        2500.00        4476.16     
  1664.16        2500.00        4476.84     
  1661.65        2500.00        4476.09     
  1659.15        2500.00        4476.18     
  1656.64        2500.00        4478.94     
  1654.14        2500.00        4478.79     
  1651.63        2500.00        4476.12     
  1649.12        2500.00        4476.98     
  1646.62        2500.00        4478.35     
  1644.11        2500.00        4478.04     
  1641.60        2500.00        3399.68     
  1639.10        2500.00        3357.24     
  1636.59        2500.00        3358.84     
  1634.09        2500.00        3360.37     
  1631.58        2500.00        3362.40     
  1629.07        2500.00        3363.81     
  1626.57        2500.00        3365.97     
  1624.06        2500.00        3367.07     
  1621.55        2500.00        3287.67     
  1619.05        2500.00        3262.46     
  1616.54        2500.00        3263.81     
  1614.04        2500.00        3265.09     
  1611.53        2500.00        3266.51     
  1609.02        2500.00        3267.22     
  1606.52        2500.00        3268.44     
  1604.01        2500.00        3268.94     
  1601.50        2500.00        3270.14     
  1599.00        2500.00        3271.84     
  1596.49        2500.00        3273.06     
  1593.98        2500.00        3274.52     
  1591.48        2500.00        3275.52     
  1588.97        2500.00        3276.17     
  1586.47        2500.00        3277.89     
  1583.96        2500.00        3278.56     
  1581.45        2500.00        3279.84     
  1578.95        2500.00        3281.20     
  1576.44        2500.00        3282.38     
  1573.93        2500.00        3283.46     
  1571.43        2500.00        3284.71     
  1568.92        2500.00        3285.65     
  1566.42        2500.00        3286.75     
  1563.91        2500.00        3288.16     
  1561.40        2500.00        3289.53     
  1558.90        2500.00        2920.21     
  1556.39        2500.00        3279.15     
  1553.88        2500.00        3292.13     
  1551.38        2500.00        3293.23     
  1548.87        2500.00        3296.04     
  1546.37        2500.00        3295.44     
  1543.86        2500.00        3296.63     
  1541.35        2500.00        3297.81     
  1538.85        2500.00        3299.02     
  1536.34        2500.00        3301.74     
  1533.83        2500.00        3300.33     
  1531.33        2500.00        3302.03     
  1528.82        2500.00        3302.45     
  1526.32        2500.00        3303.32     
  1523.81        2500.00        3304.42     
  1521.30        2500.00        3304.78     
  1518.80        2500.00        3306.67     
  1516.29        2500.00        3307.12     
  1513.78        2500.00        3290.63     
  1511.28        2500.00        3284.53     
  1508.77        2500.00        3286.22     
  1506.27        2500.00        3288.18     
  1503.76        2500.00        3289.01     
  1501.25        2500.00        3290.25     
  1498.75        2500.00        3291.94     
  1496.24        2500.00        3276.14     
  1493.73        2500.00        3277.67     
  1491.23        2500.00        3280.39     
  1488.72        2500.00        3283.72     
  1486.22        2500.00        3292.17     
  1483.71        2500.00        3296.77     
  1481.20        2500.00        3298.98     
  1478.70        2500.00        3301.37     
  1476.19        2500.00        3303.92     
  1473.68        2500.00        3305.91     
  1471.18        2500.00        3308.18     
  1468.67        2500.00        3310.60     
  1466.17        2500.00        3312.90     
  1463.66        2500.00        3315.20     
  1461.15        2500.00        3317.66     
  1458.65        2500.00        3320.33     
  1456.14        2500.00        3322.18     
  1453.63        2500.00        3324.60     
  1451.13        2500.00        3327.19     
  1448.62        2500.00        3329.56     
  1446.12        2500.00        3332.24     
  1443.61        2500.00        3334.33     
  1441.10        2500.00        3336.79     
  1438.60        2500.00        3339.37     
  1436.09        2500.00        3174.62     
  1433.58        2500.00        3164.79     
  1431.08        2500.00        3169.23     
  1428.57        2500.00        3173.99     
  1426.07        2500.00        3178.42     
  1423.56        2500.00        3183.16     
  1421.05        2500.00        3187.85     
  1418.55        2500.00        3192.52     
  1416.04        2500.00        3197.39     
  1413.53        2500.00        3202.07     
  1411.03        2500.00        3206.82     
  1408.52        2500.00        3211.80     
  1406.02        2500.00        3216.56     
  1403.51        2500.00        3221.45     
  1401.00        2500.00        3226.34     
  1398.50        2500.00        3230.74     
  1395.99        2500.00        3236.67     
  1393.48        2500.00        3241.03     
  1390.98        2500.00        3245.95     
  1388.47        2500.00        3250.91     
  1385.96        2500.00        3255.79     
  1383.46        2500.00        3260.69     
  1380.95        2500.00        3265.11     
  1378.45        2500.00        3269.72     
  1375.94        2500.00        3274.00     
  1373.43        2500.00        3278.43     
  1370.93        2500.00        3282.76     
  1368.42        2500.00        3287.14     
  1365.91        2500.00        3291.39     
  1363.41        2500.00        3295.97     
  1360.90        2500.00        3299.89     
  1358.40        2500.00        3303.32     
  1355.89        2500.00        3339.02     
  1353.38        2500.00        3374.28     
  1350.88        2500.00        3376.03     
  1348.37        2500.00        3377.97     
  1345.86        2500.00        3379.84     
  1343.36        2500.00        3381.15     
  1340.85        2500.00        3382.93     
  1338.35        2500.00        3384.65     
  1335.84        2500.00        3386.17     
  1333.33        2500.00        3387.43     
  1330.83        2500.00        3388.98     
  1328.32        2500.00        3389.99     
  1325.81        2500.00        3391.00     
  1323.31        2500.00        3391.66     
  1320.80        2500.00        3393.11     
  1318.30        2500.00        3393.93     
  1315.79        2500.00        3394.53     
  1313.28        2500.00        3395.29     
  1310.78        2500.00        3394.68     
  1308.27        2500.00        3396.43     
  1305.76        2500.00        3396.56     
  1303.26        2500.00        3396.74     
  1300.75        2500.00        3396.81     
  1298.25        2500.00        3396.87     
  1295.74        2500.00        3396.52     
  1293.23        2500.00        3062.68     
  1290.73        2500.00        2897.32     
  1288.22        2500.00        2902.92     
  1285.71        2500.00        2908.81     
  1283.21        2500.00        2914.91     
  1280.70        2500.00        2919.06     
  1278.20        2500.00        2900.97     
  1275.69        2500.00        2900.58     
  1273.18        2500.00        2868.04     
  1270.68        2500.00        2846.75     
  1268.17        2500.00        3713.14     
  1265.66        2500.00        3711.06     
  1263.16        2500.00        3502.04     
  1260.65        2500.00        3073.06     
  1258.15        2500.00        2934.89     
  1255.64        2500.00        3123.42     
  1253.13        2500.00        3064.96     
  1250.63        2500.00        3082.50     
  1248.12        2500.00        2928.34     
  1245.61        2500.00        2846.25     
  1243.11        2500.00        2945.18     
  1240.60        2500.00        2821.94     
  1238.10        2500.00        2770.25     
  1235.59        2500.00        2748.22     
  1233.08        2500.00        2750.53     
  1230.58        2500.00        2738.67     
  1228.07        2500.00        2717.11     
  1225.56        2500.00        2693.87     
  1223.06        2500.00        2694.01     
  1220.55        2500.00        2694.14     
  1218.05        2500.00        2694.99     
  1215.54        2500.00        2694.39     
  1213.03        2500.00        2694.87     
  1210.53        2500.00        2695.71     
  1208.02        2500.00        2695.61     
  1205.51        2500.00        2695.62     
  1203.01        2500.00        2695.75     
  1200.50        2500.00        2695.91     
  1197.99        2500.00        2695.96     
  1195.49        2500.00        2685.79     
  1192.98        2500.00        2685.92     
  1190.48        2500.00        2686.04     
  1187.97        2500.00        2686.17     
  1185.46        2500.00        2686.30     
  1182.96        2500.00        2686.43     
  1180.45        2500.00        2686.55     
  1177.94        2500.00        2686.68     
  1175.44        2500.00        2686.81     
  1172.93        2500.00        2686.93     
  1170.43        2500.00        2687.06     
  1167.92        2500.00        2687.18     
  1165.41        2500.00        2697.45     
  1162.91        2500.00        2687.44     
  1160.40        2500.00        2697.75     
  1157.89        2500.00        2697.93     
  1155.39        2500.00        2687.82     
  1152.88        2500.00        2698.29     
  1150.38        2500.00        2698.47     
  1147.87        2500.00        2698.61     
  1145.36        2500.00        2698.49     
  1142.86        2500.00        2699.01     
  1140.35        2500.00        2699.40     
  1137.84        2500.00        2698.70     
  1135.34        2500.00        2698.84     
  1132.83        2500.00        2698.97     
  1130.33        2500.00        2699.12     
  1127.82        2500.00        2699.45     
  1125.31        2500.00        2699.36     
  1122.81        2500.00        2700.10     
  1120.30        2500.00        2699.58     
  1117.79        2500.00        2700.20     
  1115.29        2500.00        2700.08     
  1112.78        2500.00        2700.21     
  1110.28        2500.00        2700.32     
  1107.77        2500.00        2700.49     
  1105.26        2500.00        2700.43     
  1102.76        2500.00        2700.57     
  1100.25        2500.00        2700.58     
  1097.74        2500.00        2700.84     
  1095.24        2500.00        2700.98     
  1092.73        2500.00        2701.24     
  1090.23        2500.00        2701.27     
  1087.72        2500.00        2701.49     
  1085.21        2500.00        2701.41     
  1082.71        2500.00        2701.53     
  1080.20        2500.00        2701.62     
  1077.69        2500.00        2701.77     
  1075.19        2500.00        2701.91     
  1072.68        2500.00        2702.16     
  1070.18        2500.00        2702.15     
  1067.67        2500.00        2702.27     
  1065.16        2500.00        2692.29     
  1062.66        2500.00        2702.51     
  1060.15        2500.00        2702.79     
  1057.64        2500.00        2702.74     
  1055.14        2500.00        2702.86     
  1052.63        2500.00        2702.99     
  1050.13        2500.00        2703.11     
  1047.62        2500.00        2703.23     
  1045.11        2500.00        2703.36     
  1042.61        2500.00        2703.48     
  1040.10        2500.00        2703.60     
  1037.59        2500.00        2703.80     
  1035.09        2500.00        2703.84     
  1032.58        2500.00        2703.96     
  1030.08        2500.00        2704.08     
  1027.57        2500.00        2694.14     
  1025.06        2500.00        2694.27     
  1022.56        2500.00        2694.39     
  1020.05        2500.00        2694.51     
  1017.54        2500.00        2694.63     
  1015.04        2500.00        2704.80     
  1012.53        2500.00        2704.92     
  1010.03        2500.00        2705.04     
  1007.52        2500.00        2705.16     
  1005.01        2500.00        2705.28     
  1002.51        2500.00        2697.02     
  1000.00        2500.00        2705.52     
