|6.6.6
Archiving\03_Data\DeqLP/QFM_m2.5/YM20/YM20_6.tab                        
           1
T(K)    
  0.000000000000000E+000
  0.000000000000000E+000
           0
           3
T(K)           P(bar)         rho,kg/m3     
  2000.00        500.000        8099.88     
  1996.79        500.000        8101.72     
  1993.59        500.000        8103.55     
  1990.38        500.000        8105.38     
  1987.18        500.000        8107.21     
  1983.97        500.000        8109.03     
  1980.77        500.000        8110.86     
  1977.56        500.000        8112.68     
  1974.36        500.000        8114.50     
  1971.15        500.000        8116.32     
  1967.95        500.000        8118.14     
  1964.74        500.000        8119.96     
  1961.54        500.000        8121.78     
  1958.33        500.000        8123.59     
  1955.13        500.000        8125.41     
  1951.92        500.000        8127.22     
  1948.72        500.000        8129.03     
  1945.51        500.000        8130.84     
  1942.31        500.000        8132.64     
  1939.10        500.000        8134.45     
  1935.90        500.000        8136.25     
  1932.69        500.000        8138.06     
  1929.49        500.000        8139.86     
  1926.28        500.000        8141.66     
  1923.08        500.000        8143.46     
  1919.87        500.000        3705.57     
  1916.67        500.000        3215.42     
  1913.46        500.000        3182.81     
  1910.26        500.000        3170.99     
  1907.05        500.000        3165.90     
  1903.85        500.000        3164.98     
  1900.64        500.000        3164.56     
  1897.44        500.000        3164.33     
  1894.23        500.000        3164.88     
  1891.03        500.000        3165.41     
  1887.82        500.000        3165.77     
  1884.62        500.000        3168.27     
  1881.41        500.000        3171.46     
  1878.21        500.000        3174.24     
  1875.00        500.000        3176.71     
  1871.79        500.000        3178.92     
  1868.59        500.000        3181.93     
  1865.38        500.000        3184.65     
  1862.18        500.000        3187.13     
  1858.97        500.000        3189.41     
  1855.77        500.000        3191.52     
  1852.56        500.000        3193.47     
  1849.36        500.000        3195.29     
  1846.15        500.000        3197.00     
  1842.95        500.000        3199.45     
  1839.74        500.000        3201.76     
  1836.54        500.000        3203.93     
  1833.33        500.000        3205.98     
  1830.13        500.000        3207.93     
  1826.92        500.000        3209.78     
  1823.72        500.000        3211.55     
  1820.51        500.000        3213.24     
  1817.31        500.000        3215.46     
  1814.10        500.000        3217.58     
  1810.90        500.000        3219.62     
  1807.69        500.000        3221.58     
  1804.49        500.000        3223.46     
  1801.28        500.000        3225.27     
  1798.08        500.000        3227.01     
  1794.87        500.000        3228.70     
  1791.67        500.000        3230.73     
  1788.46        500.000        3232.69     
  1785.26        500.000        3234.59     
  1782.05        500.000        3236.43     
  1778.85        500.000        3238.21     
  1775.64        500.000        3239.95     
  1772.44        500.000        3241.63     
  1769.23        500.000        3243.26     
  1766.03        500.000        3245.11     
  1762.82        500.000        3246.90     
  1759.62        500.000        3248.65     
  1756.41        500.000        3250.36     
  1753.21        500.000        3252.02     
  1750.00        500.000        3253.65     
  1746.79        500.000        3255.23     
  1743.59        500.000        3256.78     
  1740.38        500.000        3258.44     
  1737.18        500.000        3260.06     
  1733.97        500.000        3261.65     
  1730.77        500.000        3263.20     
  1727.56        500.000        3264.72     
  1724.36        500.000        3266.22     
  1721.15        500.000        3267.68     
  1717.95        500.000        3269.12     
  1714.74        500.000        3270.58     
  1711.54        500.000        3272.02     
  1708.33        500.000        3273.44     
  1705.13        500.000        3274.83     
  1701.92        500.000        3276.19     
  1698.72        500.000        3277.54     
  1695.51        500.000        3278.86     
  1692.31        500.000        3280.16     
  1689.10        500.000        3281.45     
  1685.90        500.000        3282.71     
  1682.69        500.000        3283.96     
  1679.49        500.000        3285.18     
  1676.28        500.000        3286.40     
  1673.08        500.000        3287.59     
  1669.87        500.000        3288.77     
  1666.67        500.000        3289.94     
  1663.46        500.000        3291.05     
  1660.26        500.000        3292.15     
  1657.05        500.000        3293.24     
  1653.85        500.000        3294.31     
  1650.64        500.000        3295.37     
  1647.44        500.000        3296.43     
  1644.23        500.000        3297.47     
  1641.03        500.000        3298.50     
  1637.82        500.000        3299.47     
  1634.62        500.000        3300.43     
  1631.41        500.000        3301.38     
  1628.21        500.000        3302.32     
  1625.00        500.000        3303.25     
  1621.79        500.000        3304.18     
  1618.59        500.000        3305.10     
  1615.38        500.000        3306.01     
  1612.18        500.000        3305.53     
  1608.97        500.000        3304.43     
  1605.77        500.000        3303.47     
  1602.56        500.000        3302.57     
  1599.36        500.000        3301.93     
  1596.15        500.000        3301.33     
  1592.95        500.000        3300.77     
  1589.74        500.000        3300.23     
  1586.54        500.000        3299.95     
  1583.33        500.000        3299.68     
  1580.13        500.000        3299.43     
  1576.92        500.000        3299.19     
  1573.72        500.000        3298.98     
  1570.51        500.000        3298.78     
  1567.31        500.000        3298.59     
  1564.10        500.000        3298.42     
  1560.90        500.000        3298.42     
  1557.69        500.000        3298.43     
  1554.49        500.000        3298.45     
  1551.28        500.000        3298.48     
  1548.08        500.000        3298.51     
  1544.87        500.000        3298.55     
  1541.67        500.000        3298.60     
  1538.46        500.000        3298.66     
  1535.26        500.000        3298.79     
  1532.05        500.000        3298.93     
  1528.85        500.000        3299.07     
  1525.64        500.000        3299.22     
  1522.44        500.000        3299.38     
  1519.23        500.000        3299.53     
  1516.03        500.000        3299.70     
  1512.82        500.000        3299.86     
  1509.62        500.000        3300.06     
  1506.41        500.000        3300.27     
  1503.21        500.000        3300.48     
  1500.00        500.000        3300.69     
  1496.79        500.000        3300.90     
  1493.59        500.000        3301.12     
  1490.38        500.000        3301.34     
  1487.18        500.000        3301.57     
  1483.97        500.000        3301.82     
  1480.77        500.000        3302.07     
  1477.56        500.000        3302.32     
  1474.36        500.000        3302.58     
  1471.15        500.000        3302.87     
  1467.95        500.000        3303.22     
  1464.74        500.000        3303.60     
  1461.54        500.000        3303.98     
  1458.33        500.000        3304.39     
  1455.13        500.000        3304.80     
  1451.92        500.000        3305.22     
  1448.72        500.000        3305.63     
  1445.51        500.000        3304.86     
  1442.31        500.000        3303.04     
  1439.10        500.000        3303.48     
  1435.90        500.000        3300.29     
  1432.69        500.000        3300.73     
  1429.49        500.000        3301.17     
  1426.28        500.000        3301.61     
  1423.08        500.000        3302.05     
  1419.87        500.000        3302.49     
  1416.67        500.000        3302.92     
  1413.46        500.000        3303.36     
  1410.26        500.000        3295.48     
  1407.05        500.000        3295.91     
  1403.85        500.000        3296.35     
  1400.64        500.000        3296.78     
  1397.44        500.000        3297.21     
  1394.23        500.000        3297.64     
  1391.03        500.000        3298.07     
  1387.82        500.000        3298.50     
  1384.62        500.000        3294.12     
  1381.41        500.000        3294.54     
  1378.21        500.000        3294.97     
  1375.00        500.000        3295.40     
  1371.79        500.000        3295.83     
  1368.59        500.000        3296.25     
  1365.38        500.000        3296.68     
  1362.18        500.000        3297.10     
  1358.97        500.000        3293.85     
  1355.77        500.000        3294.28     
  1352.56        500.000        3294.70     
  1349.36        500.000        3295.12     
  1346.15        500.000        3295.55     
  1342.95        500.000        3295.97     
  1339.74        500.000        3296.39     
  1336.54        500.000        3296.81     
  1333.33        500.000        3294.12     
  1330.13        500.000        3294.54     
  1326.92        500.000        3294.96     
  1323.72        500.000        3295.38     
  1320.51        500.000        3295.79     
  1317.31        500.000        3296.21     
  1314.10        500.000        3296.63     
  1310.90        500.000        3297.05     
  1307.69        500.000        3294.73     
  1304.49        500.000        3295.15     
  1301.28        500.000        3294.93     
  1298.08        500.000        3290.06     
  1294.87        500.000        3290.41     
  1291.67        500.000        3290.83     
  1288.46        500.000        3291.24     
  1285.26        500.000        3291.66     
  1282.05        500.000        3291.84     
  1278.85        500.000        3292.25     
  1275.64        500.000        3292.67     
  1272.44        500.000        3293.08     
  1269.23        500.000        3293.49     
  1266.03        500.000        3293.90     
  1262.82        500.000        3294.31     
  1259.62        500.000        3294.72     
  1256.41        500.000        3294.70     
  1253.21        500.000        3295.11     
  1250.00        500.000        3295.52     
  1246.79        500.000        3295.93     
  1243.59        500.000        3296.34     
  1240.38        500.000        3296.75     
  1237.18        500.000        3297.16     
  1233.97        500.000        3297.57     
  1230.77        500.000        3297.58     
  1227.56        500.000        3297.98     
  1224.36        500.000        3298.39     
  1221.15        500.000        3298.80     
  1217.95        500.000        3299.21     
  1214.74        500.000        3299.61     
  1211.54        500.000        3300.02     
  1208.33        500.000        3300.43     
  1205.13        500.000        3300.47     
  1201.92        500.000        3300.87     
  1198.72        500.000        3301.28     
  1195.51        500.000        3301.68     
  1192.31        500.000        3302.09     
  1189.10        500.000        3302.49     
  1185.90        500.000        3302.90     
  1182.69        500.000        3303.30     
  1179.49        500.000        3303.37     
  1176.28        500.000        3303.78     
  1173.08        500.000        3304.18     
  1169.87        500.000        3304.58     
  1166.67        500.000        3304.98     
  1163.46        500.000        3305.39     
  1160.26        500.000        3305.79     
  1157.05        500.000        3306.19     
  1153.85        500.000        3306.29     
  1150.64        500.000        3306.69     
  1147.44        500.000        3307.09     
  1144.23        500.000        3307.49     
  1141.03        500.000        3307.89     
  1137.82        500.000        3308.30     
  1134.62        500.000        3308.70     
  1131.41        500.000        3309.09     
  1128.21        500.000        3309.22     
  1125.00        500.000        3309.62     
  1121.79        500.000        3310.02     
  1118.59        500.000        3310.42     
  1115.38        500.000        3310.82     
  1112.18        500.000        3311.22     
  1108.97        500.000        3311.62     
  1105.77        500.000        3312.01     
  1102.56        500.000        3312.17     
  1099.36        500.000        3312.57     
  1096.15        500.000        3312.97     
  1092.95        500.000        3313.36     
  1089.74        500.000        3313.76     
  1086.54        500.000        3314.15     
  1083.33        500.000        3314.55     
  1080.13        500.000        3314.95     
  1076.92        500.000        3315.14     
  1073.72        500.000        3315.53     
  1070.51        500.000        3315.89     
  1067.31        500.000        3316.26     
  1064.10        500.000        3316.63     
  1060.90        500.000        3317.03     
  1057.69        500.000        3317.42     
  1054.49        500.000        3317.82     
  1051.28        500.000        3318.12     
  1048.08        500.000        3318.51     
  1044.87        500.000        3318.90     
  1041.67        500.000        3319.30     
  1038.46        500.000        3319.69     
  1035.26        500.000        3320.08     
  1032.05        500.000        3320.47     
  1028.85        500.000        3320.87     
  1025.64        500.000        3321.09     
  1022.44        500.000        3321.48     
  1019.23        500.000        3321.87     
  1016.03        500.000        3322.26     
  1012.82        500.000        3322.65     
  1009.62        500.000        3323.04     
  1006.41        500.000        3323.43     
  1003.21        500.000        3323.82     
  1000.00        500.000        3324.07     
