|6.6.6
Archiving\03_Data\fracLP/QFM_m3.25/TIS/TIS_6.tab                          
           1
T(K)    
  0.000000000000000E+000
  0.000000000000000E+000
           0
           3
T(K)           P(bar)         rho,kg/m3     
  2000.00        500.000        3584.12     
  1997.49        500.000        3584.50     
  1994.99        500.000        3584.87     
  1992.48        500.000        3585.25     
  1989.97        500.000        3585.62     
  1987.47        500.000        3586.00     
  1984.96        500.000        3586.37     
  1982.46        500.000        3586.75     
  1979.95        500.000        3587.12     
  1977.44        500.000        3587.50     
  1974.94        500.000        3587.87     
  1972.43        500.000        3588.25     
  1969.92        500.000        3588.62     
  1967.42        500.000        3589.00     
  1964.91        500.000        3589.37     
  1962.41        500.000        3589.75     
  1959.90        500.000        3590.12     
  1957.39        500.000        3590.49     
  1954.89        500.000        3590.87     
  1952.38        500.000        3591.24     
  1949.87        500.000        3591.61     
  1947.37        500.000        3591.99     
  1944.86        500.000        3592.36     
  1942.36        500.000        3592.73     
  1939.85        500.000        3593.11     
  1937.34        500.000        3593.48     
  1934.84        500.000        3593.85     
  1932.33        500.000        3594.22     
  1929.82        500.000        3594.60     
  1927.32        500.000        3594.97     
  1924.81        500.000        3595.34     
  1922.31        500.000        3595.71     
  1919.80        500.000        3596.08     
  1917.29        500.000        3596.46     
  1914.79        500.000        3596.83     
  1912.28        500.000        3597.20     
  1909.77        500.000        3597.57     
  1907.27        500.000        3597.94     
  1904.76        500.000        3598.31     
  1902.26        500.000        3598.68     
  1899.75        500.000        3599.05     
  1897.24        500.000        3599.42     
  1894.74        500.000        3599.79     
  1892.23        500.000        3600.17     
  1889.72        500.000        3600.54     
  1887.22        500.000        3600.91     
  1884.71        500.000        3601.28     
  1882.21        500.000        3601.65     
  1879.70        500.000        3602.02     
  1877.19        500.000        3602.39     
  1874.69        500.000        3602.75     
  1872.18        500.000        3603.12     
  1869.67        500.000        3603.49     
  1867.17        500.000        3603.86     
  1864.66        500.000        3604.23     
  1862.16        500.000        3604.60     
  1859.65        500.000        3604.97     
  1857.14        500.000        3605.34     
  1854.64        500.000        3605.71     
  1852.13        500.000        3606.07     
  1849.62        500.000        3606.44     
  1847.12        500.000        3606.81     
  1844.61        500.000        3607.18     
  1842.11        500.000        3607.55     
  1839.60        500.000        3607.91     
  1837.09        500.000        3608.28     
  1834.59        500.000        3608.65     
  1832.08        500.000        3609.02     
  1829.57        500.000        3609.38     
  1827.07        500.000        3609.75     
  1824.56        500.000        3610.12     
  1822.06        500.000        3610.49     
  1819.55        500.000        3610.85     
  1817.04        500.000        3611.22     
  1814.54        500.000        3611.59     
  1812.03        500.000        3611.95     
  1809.52        500.000        3612.32     
  1807.02        500.000        3612.68     
  1804.51        500.000        3613.05     
  1802.01        500.000        3613.42     
  1799.50        500.000        3613.78     
  1796.99        500.000        3614.15     
  1794.49        500.000        3614.51     
  1791.98        500.000        3614.88     
  1789.47        500.000        3615.24     
  1786.97        500.000        3615.61     
  1784.46        500.000        3615.97     
  1781.95        500.000        3616.34     
  1779.45        500.000        3616.70     
  1776.94        500.000        3617.07     
  1774.44        500.000        3617.43     
  1771.93        500.000        3617.80     
  1769.42        500.000        3618.16     
  1766.92        500.000        3618.53     
  1764.41        500.000        3618.89     
  1761.90        500.000        3619.25     
  1759.40        500.000        3619.62     
  1756.89        500.000        3619.98     
  1754.39        500.000        3620.34     
  1751.88        500.000        3620.71     
  1749.37        500.000        3621.07     
  1746.87        500.000        3621.43     
  1744.36        500.000        3621.80     
  1741.85        500.000        3622.16     
  1739.35        500.000        3622.52     
  1736.84        500.000        3622.89     
  1734.34        500.000        3623.25     
  1731.83        500.000        3623.61     
  1729.32        500.000        3623.97     
  1726.82        500.000        3624.33     
  1724.31        500.000        3624.70     
  1721.80        500.000        3625.06     
  1719.30        500.000        3625.42     
  1716.79        500.000        3625.78     
  1714.29        500.000        3626.14     
  1711.78        500.000        3626.51     
  1709.27        500.000        3626.87     
  1706.77        500.000        3627.23     
  1704.26        500.000        3627.59     
  1701.75        500.000        3627.95     
  1699.25        500.000        3628.31     
  1696.74        500.000        3628.67     
  1694.24        500.000        3629.03     
  1691.73        500.000        3629.39     
  1689.22        500.000        3629.75     
  1686.72        500.000        3630.11     
  1684.21        500.000        3630.47     
  1681.70        500.000        3630.83     
  1679.20        500.000        3631.19     
  1676.69        500.000        3631.55     
  1674.19        500.000        3632.06     
  1671.68        500.000        3636.07     
  1669.17        500.000        3641.54     
  1666.67        500.000        3641.71     
  1664.16        500.000        3642.06     
  1661.65        500.000        3642.35     
  1659.15        500.000        3642.62     
  1656.64        500.000        3642.92     
  1654.14        500.000        3535.65     
  1651.63        500.000        4507.80     
  1649.12        500.000        3666.80     
  1646.62        500.000        3402.66     
  1644.11        500.000        3401.47     
  1641.60        500.000        3404.08     
  1639.10        500.000        3405.94     
  1636.59        500.000        3408.32     
  1634.09        500.000        3410.38     
  1631.58        500.000        3412.70     
  1629.07        500.000        3414.32     
  1626.57        500.000        3416.48     
  1624.06        500.000        3418.75     
  1621.55        500.000        3421.06     
  1619.05        500.000        3423.54     
  1616.54        500.000        3425.48     
  1614.04        500.000        3427.40     
  1611.53        500.000        3430.42     
  1609.02        500.000        3432.31     
  1606.52        500.000        3433.97     
  1604.01        500.000        3436.36     
  1601.50        500.000        3437.61     
  1599.00        500.000        3440.14     
  1596.49        500.000        3441.76     
  1593.98        500.000        3445.09     
  1591.48        500.000        3447.10     
  1588.97        500.000        3448.46     
  1586.47        500.000        3450.52     
  1583.96        500.000        3453.26     
  1581.45        500.000        3455.73     
  1578.95        500.000        3456.89     
  1576.44        500.000        3461.92     
  1573.93        500.000        3462.74     
  1571.43        500.000        3463.63     
  1568.92        500.000        3466.19     
  1566.42        500.000        3467.40     
  1563.91        500.000        3472.27     
  1561.40        500.000        3471.66     
  1558.90        500.000        3474.24     
  1556.39        500.000        3475.93     
  1553.88        500.000        3478.40     
  1551.38        500.000        3480.53     
  1548.87        500.000        3479.24     
  1546.37        500.000        3652.49     
  1543.86        500.000        3487.08     
  1541.35        500.000        3488.49     
  1538.85        500.000        3490.91     
  1536.34        500.000        3493.45     
  1533.83        500.000        3495.82     
  1531.33        500.000        4517.25     
  1528.82        500.000        3498.64     
  1526.32        500.000        3502.10     
  1523.81        500.000        3504.68     
  1521.30        500.000        3505.83     
  1518.80        500.000        3508.06     
  1516.29        500.000        3510.50     
  1513.78        500.000        3512.79     
  1511.28        500.000        3513.68     
  1508.77        500.000        3516.03     
  1506.27        500.000        3518.12     
  1503.76        500.000        3521.29     
  1501.25        500.000        3372.31     
  1498.75        500.000        3322.46     
  1496.24        500.000        3324.35     
  1493.73        500.000        3325.41     
  1491.23        500.000        3325.57     
  1488.72        500.000        3335.38     
  1486.22        500.000        3313.73     
  1483.71        500.000        3315.30     
  1481.20        500.000        3316.74     
  1478.70        500.000        3318.40     
  1476.19        500.000        3319.46     
  1473.68        500.000        3331.73     
  1471.18        500.000        3328.29     
  1468.67        500.000        3307.67     
  1466.17        500.000        3303.62     
  1463.66        500.000        3306.01     
  1461.15        500.000        3308.67     
  1458.65        500.000        3310.87     
  1456.14        500.000        3313.22     
  1453.63        500.000        3315.76     
  1451.13        500.000        3318.02     
  1448.62        500.000        3320.59     
  1446.12        500.000        3323.21     
  1443.61        500.000        3325.46     
  1441.10        500.000        3328.07     
  1438.60        500.000        3330.63     
  1436.09        500.000        3332.92     
  1433.58        500.000        3335.55     
  1431.08        500.000        3338.10     
  1428.57        500.000        3341.07     
  1426.07        500.000        3343.25     
  1423.56        500.000        3346.03     
  1421.05        500.000        3348.92     
  1418.55        500.000        3351.09     
  1416.04        500.000        3353.82     
  1413.53        500.000        3356.57     
  1411.03        500.000        3359.21     
  1408.52        500.000        3361.88     
  1406.02        500.000        3317.52     
  1403.51        500.000        3167.09     
  1401.00        500.000        3170.64     
  1398.50        500.000        3174.08     
  1395.99        500.000        3177.71     
  1393.48        500.000        3181.51     
  1390.98        500.000        3185.06     
  1388.47        500.000        3188.70     
  1385.96        500.000        3192.26     
  1383.46        500.000        3195.84     
  1380.95        500.000        3199.73     
  1378.45        500.000        3203.39     
  1375.94        500.000        3207.08     
  1373.43        500.000        3210.69     
  1370.93        500.000        3214.55     
  1368.42        500.000        3218.39     
  1365.91        500.000        3248.65     
  1363.41        500.000        3258.49     
  1360.90        500.000        3259.99     
  1358.40        500.000        3266.37     
  1355.89        500.000        3270.91     
  1353.38        500.000        3274.00     
  1350.88        500.000        3278.27     
  1348.37        500.000        3282.11     
  1345.86        500.000        3285.84     
  1343.36        500.000        3289.75     
  1340.85        500.000        3292.88     
  1338.35        500.000        3295.23     
  1335.84        500.000        3300.14     
  1333.33        500.000        3303.72     
  1330.83        500.000        3306.28     
  1328.32        500.000        3309.71     
  1325.81        500.000        3323.22     
  1323.31        500.000        3354.93     
  1320.80        500.000        3357.64     
  1318.30        500.000        3360.18     
  1315.79        500.000        3362.25     
  1313.28        500.000        3364.47     
  1310.78        500.000        3367.15     
  1308.27        500.000        3368.53     
  1305.76        500.000        3370.68     
  1303.26        500.000        3372.59     
  1300.75        500.000        3374.70     
  1298.25        500.000        3376.48     
  1295.74        500.000        3378.23     
  1293.23        500.000        3379.66     
  1290.73        500.000        3381.17     
  1288.22        500.000        3382.61     
  1285.71        500.000        3384.11     
  1283.21        500.000        3385.69     
  1280.70        500.000        3385.38     
  1278.20        500.000        3387.88     
  1275.69        500.000        3388.69     
  1273.18        500.000        3389.74     
  1270.68        500.000        3390.59     
  1268.17        500.000        3391.12     
  1265.66        500.000        3392.10     
  1263.16        500.000        2911.49     
  1260.65        500.000        2872.24     
  1258.15        500.000        2874.82     
  1255.64        500.000        2876.78     
  1253.13        500.000        2878.43     
  1250.63        500.000        2879.79     
  1248.12        500.000        2880.56     
  1245.61        500.000        2882.04     
  1243.11        500.000        2882.37     
  1240.60        500.000        2882.62     
  1238.10        500.000        2882.63     
  1235.59        500.000        2882.85     
  1233.08        500.000        2882.43     
  1230.58        500.000        2882.40     
  1228.07        500.000        2881.68     
  1225.56        500.000        2881.81     
  1223.06        500.000        2881.60     
  1220.55        500.000        2881.52     
  1218.05        500.000        2705.66     
  1215.54        500.000        2691.92     
  1213.03        500.000        2686.36     
  1210.53        500.000        2688.73     
  1208.02        500.000        2690.93     
  1205.51        500.000        2681.10     
  1203.01        500.000        2687.17     
  1200.50        500.000        2672.43     
  1197.99        500.000        2674.41     
  1195.49        500.000        2662.94     
  1192.98        500.000        2663.69     
  1190.48        500.000        2637.63     
  1187.97        500.000        2630.76     
  1185.46        500.000        2630.85     
  1182.96        500.000        2630.96     
  1180.45        500.000        2631.07     
  1177.94        500.000        2631.18     
  1175.44        500.000        2631.29     
  1172.93        500.000        2631.40     
  1170.43        500.000        2631.51     
  1167.92        500.000        2631.62     
  1165.41        500.000        2631.72     
  1162.91        500.000        2631.83     
  1160.40        500.000        2631.94     
  1157.89        500.000        2632.05     
  1155.39        500.000        2632.16     
  1152.88        500.000        2632.27     
  1150.38        500.000        2632.38     
  1147.87        500.000        2632.48     
  1145.36        500.000        2632.59     
  1142.86        500.000        2632.70     
  1140.35        500.000        2632.81     
  1137.84        500.000        2632.92     
  1135.34        500.000        2633.02     
  1132.83        500.000        2633.14     
  1130.33        500.000        2633.24     
  1127.82        500.000        2633.35     
  1125.31        500.000        2633.44     
  1122.81        500.000        2633.55     
  1120.30        500.000        2633.67     
  1117.79        500.000        2633.79     
  1115.29        500.000        2633.87     
  1112.78        500.000        2631.94     
  1110.28        500.000        2634.09     
  1107.77        500.000        2634.20     
  1105.26        500.000        2634.31     
  1102.76        500.000        2634.42     
  1100.25        500.000        2634.53     
  1097.74        500.000        2634.64     
  1095.24        500.000        2634.69     
  1092.73        500.000        2634.81     
  1090.23        500.000        2634.62     
  1087.72        500.000        2635.08     
  1085.21        500.000        2633.11     
  1082.71        500.000        2632.95     
  1080.20        500.000        2632.93     
  1077.69        500.000        2632.84     
  1075.19        500.000        2632.85     
  1072.68        500.000        2632.87     
  1070.18        500.000        2632.91     
  1067.67        500.000        2632.95     
  1065.16        500.000        2632.99     
  1062.66        500.000        2633.04     
  1060.15        500.000        2633.08     
  1057.64        500.000        2633.13     
  1055.14        500.000        2633.19     
  1052.63        500.000        2633.25     
  1050.13        500.000        2633.31     
  1047.62        500.000        2633.37     
  1045.11        500.000        2633.06     
  1042.61        500.000        2633.16     
  1040.10        500.000        2633.27     
  1037.59        500.000        2633.37     
  1035.09        500.000        2633.39     
  1032.58        500.000        2633.49     
  1030.08        500.000        2633.60     
  1027.57        500.000        2633.62     
  1025.06        500.000        2633.73     
  1022.56        500.000        2633.83     
  1020.05        500.000        2633.86     
  1017.54        500.000        2633.96     
  1015.04        500.000        2634.07     
  1012.53        500.000        2634.17     
  1010.03        500.000        2634.28     
  1007.52        500.000        2634.38     
  1005.01        500.000        2634.49     
  1002.51        500.000        2634.59     
  1000.00        500.000        2634.69     
