|6.6.6
Archiving\03_Data\eqfrac/QFM_m2.25/KHA22/KHA22_6.tab                      
           1
T(K)    
  0.000000000000000E+000
  0.000000000000000E+000
           0
           3
T(K)           P(bar)         rho,kg/m3     
  1589.74        2500.00        3282.55     
  1588.26        2500.00        3221.25     
  1586.78        2500.00        3222.92     
  1585.31        2500.00        3224.02     
  1583.83        2500.00        3224.01     
  1582.35        2500.00        3224.66     
  1580.87        2500.00        3225.14     
  1579.39        2500.00        3225.11     
  1577.92        2500.00        3225.36     
  1576.44        2500.00        3225.27     
  1574.96        2500.00        3226.41     
  1573.48        2500.00        3226.82     
  1572.00        2500.00        3227.00     
  1570.53        2500.00        3227.92     
  1569.05        2500.00        3227.76     
  1567.57        2500.00        3227.79     
  1566.09        2500.00        3229.14     
  1564.61        2500.00        3229.46     
  1563.14        2500.00        3229.23     
  1561.66        2500.00        3229.19     
  1560.18        2500.00        3230.22     
  1558.70        2500.00        3232.47     
  1557.22        2500.00        3230.64     
  1555.74        2500.00        3231.01     
  1554.27        2500.00        3231.36     
  1552.79        2500.00        3233.18     
  1551.31        2500.00        3227.95     
  1549.83        2500.00        3235.28     
  1548.35        2500.00        3231.65     
  1546.88        2500.00        3234.72     
  1545.40        2500.00        3232.45     
  1543.92        2500.00        3235.03     
  1542.44        2500.00        3231.72     
  1540.96        2500.00        3234.32     
  1539.49        2500.00        3234.75     
  1538.01        2500.00        3234.69     
  1536.53        2500.00        3235.36     
  1535.05        2500.00        3236.47     
  1533.57        2500.00        3235.79     
  1532.10        2500.00        3237.27     
  1530.62        2500.00        3236.33     
  1529.14        2500.00        3237.98     
  1527.66        2500.00        3236.55     
  1526.18        2500.00        3234.28     
  1524.71        2500.00        3232.10     
  1523.23        2500.00        3238.28     
  1521.75        2500.00        3238.67     
  1520.27        2500.00        3241.22     
  1518.79        2500.00        3235.79     
  1517.32        2500.00        3242.88     
  1515.84        2500.00        3239.26     
  1514.36        2500.00        3240.12     
  1512.88        2500.00        3239.69     
  1511.40        2500.00        3240.61     
  1509.93        2500.00        3240.61     
  1508.45        2500.00        3240.83     
  1506.97        2500.00        3241.52     
  1505.49        2500.00        3241.44     
  1504.01        2500.00        3242.21     
  1502.54        2500.00        3242.27     
  1501.06        2500.00        3237.02     
  1499.58        2500.00        3221.59     
  1498.10        2500.00        2762.61     
  1496.62        2500.00        3222.85     
  1495.15        2500.00        3228.78     
  1493.67        2500.00        3223.99     
  1492.19        2500.00        3224.35     
  1490.71        2500.00        3225.33     
  1489.23        2500.00        3226.62     
  1487.75        2500.00        3227.15     
  1486.28        2500.00        3228.01     
  1484.80        2500.00        3228.88     
  1483.32        2500.00        3229.60     
  1481.84        2500.00        3226.53     
  1480.36        2500.00        3224.97     
  1478.89        2500.00        3225.06     
  1477.41        2500.00        3226.37     
  1475.93        2500.00        3226.77     
  1474.45        2500.00        3228.03     
  1472.97        2500.00        3228.89     
  1471.50        2500.00        3229.77     
  1470.02        2500.00        3230.73     
  1468.54        2500.00        3231.72     
  1467.06        2500.00        3232.27     
  1465.58        2500.00        3233.29     
  1464.11        2500.00        3234.14     
  1462.63        2500.00        3235.11     
  1461.15        2500.00        3237.10     
  1459.67        2500.00        3236.91     
  1458.19        2500.00        3237.83     
  1456.72        2500.00        3238.64     
  1455.24        2500.00        3239.57     
  1453.76        2500.00        3240.61     
  1452.28        2500.00        3241.42     
  1450.80        2500.00        3242.27     
  1449.33        2500.00        3243.37     
  1447.85        2500.00        3243.05     
  1446.37        2500.00        3245.27     
  1444.89        2500.00        3246.29     
  1443.41        2500.00        3247.00     
  1441.94        2500.00        3247.81     
  1440.46        2500.00        3248.86     
  1438.98        2500.00        3249.87     
  1437.50        2500.00        3250.90     
  1436.02        2500.00        3251.89     
  1434.55        2500.00        3252.98     
  1433.07        2500.00        3253.73     
  1431.59        2500.00        3108.18     
  1430.11        2500.00        3080.76     
  1428.63        2500.00        3081.68     
  1427.16        2500.00        3082.87     
  1425.68        2500.00        3085.39     
  1424.20        2500.00        3085.68     
  1422.72        2500.00        3088.13     
  1421.24        2500.00        3088.75     
  1419.76        2500.00        3089.76     
  1418.29        2500.00        3090.80     
  1416.81        2500.00        3091.81     
  1415.33        2500.00        3092.66     
  1413.85        2500.00        3094.05     
  1412.37        2500.00        3095.01     
  1410.90        2500.00        3096.49     
  1409.42        2500.00        3097.23     
  1407.94        2500.00        3098.21     
  1406.46        2500.00        3099.41     
  1404.98        2500.00        3100.19     
  1403.51        2500.00        3101.65     
  1402.03        2500.00        3102.52     
  1400.55        2500.00        3103.43     
  1399.07        2500.00        3105.17     
  1397.59        2500.00        3104.23     
  1396.12        2500.00        3107.08     
  1394.64        2500.00        3108.10     
  1393.16        2500.00        3108.99     
  1391.68        2500.00        3110.34     
  1390.20        2500.00        3111.34     
  1388.73        2500.00        3112.73     
  1387.25        2500.00        3113.56     
  1385.77        2500.00        3114.67     
  1384.29        2500.00        3115.49     
  1382.81        2500.00        3116.87     
  1381.34        2500.00        3117.79     
  1379.86        2500.00        3118.93     
  1378.38        2500.00        3119.08     
  1376.90        2500.00        3119.81     
  1375.42        2500.00        3122.81     
  1373.95        2500.00        3123.24     
  1372.47        2500.00        3139.05     
  1370.99        2500.00        3113.83     
  1369.51        2500.00        3122.36     
  1368.03        2500.00        3127.77     
  1366.56        2500.00        3128.68     
  1365.08        2500.00        3130.09     
  1363.60        2500.00        3131.11     
  1362.12        2500.00        3132.32     
  1360.64        2500.00        3133.29     
  1359.16        2500.00        3134.62     
  1357.69        2500.00        3136.90     
  1356.21        2500.00        3136.67     
  1354.73        2500.00        3137.66     
  1353.25        2500.00        3138.74     
  1351.77        2500.00        3139.82     
  1350.30        2500.00        3140.90     
  1348.82        2500.00        3141.80     
  1347.34        2500.00        3143.01     
  1345.86        2500.00        3144.25     
  1344.38        2500.00        3145.47     
  1342.91        2500.00        3145.55     
  1341.43        2500.00        3147.29     
  1339.95        2500.00        3148.43     
  1338.47        2500.00        3149.06     
  1336.99        2500.00        3150.41     
  1335.52        2500.00        3150.83     
  1334.04        2500.00        3152.55     
  1332.56        2500.00        3153.37     
  1331.08        2500.00        3154.33     
  1329.60        2500.00        3155.61     
  1328.13        2500.00        3156.72     
  1326.65        2500.00        3157.33     
  1325.17        2500.00        3158.18     
  1323.69        2500.00        3159.31     
  1322.21        2500.00        3160.42     
  1320.74        2500.00        3161.19     
  1319.26        2500.00        3163.09     
  1317.78        2500.00        3161.43     
  1316.30        2500.00        2751.08     
  1314.82        2500.00        2750.76     
  1313.35        2500.00        2752.79     
  1311.87        2500.00        2754.97     
  1310.39        2500.00        2757.11     
  1308.91        2500.00        2759.36     
  1307.43        2500.00        2761.52     
  1305.96        2500.00        2763.66     
  1304.48        2500.00        2765.58     
  1303.00        2500.00        2767.39     
  1301.52        2500.00        2769.72     
  1300.04        2500.00        2771.63     
  1298.57        2500.00        2773.87     
  1297.09        2500.00        2775.78     
  1295.61        2500.00        2778.19     
  1294.13        2500.00        2780.41     
  1292.65        2500.00        2783.27     
  1291.17        2500.00        2785.07     
  1289.70        2500.00        2798.70     
  1288.22        2500.00        2817.53     
  1286.74        2500.00        2819.07     
  1285.26        2500.00        2820.63     
  1283.78        2500.00        2822.06     
  1282.31        2500.00        2823.80     
  1280.83        2500.00        2825.19     
  1279.35        2500.00        2826.44     
  1277.87        2500.00        2826.40     
  1276.39        2500.00        2824.90     
  1274.92        2500.00        2840.66     
  1273.44        2500.00        2837.42     
  1271.96        2500.00        2837.38     
  1270.48        2500.00        2838.10     
  1269.00        2500.00        2838.69     
  1267.53        2500.00        2834.35     
  1266.05        2500.00        2824.06     
  1264.57        2500.00        2780.12     
  1263.09        2500.00        2777.75     
  1261.61        2500.00        2773.48     
  1260.14        2500.00        2770.80     
  1258.66        2500.00        2769.48     
  1257.18        2500.00        2761.41     
  1255.70        2500.00        2749.88     
  1254.22        2500.00        2735.04     
  1252.75        2500.00        2720.36     
  1251.27        2500.00        2720.56     
  1249.79        2500.00        2720.76     
  1248.31        2500.00        2720.96     
  1246.83        2500.00        2720.75     
  1245.36        2500.00        2720.95     
  1243.88        2500.00        2721.90     
  1242.40        2500.00        2722.23     
  1240.92        2500.00        2721.78     
  1239.44        2500.00        2722.32     
  1237.97        2500.00        2722.38     
  1236.49        2500.00        2722.55     
  1235.01        2500.00        2722.91     
  1233.53        2500.00        2723.04     
  1232.05        2500.00        2723.44     
  1230.58        2500.00        2723.47     
  1229.10        2500.00        2723.57     
  1227.62        2500.00        2723.78     
  1226.14        2500.00        2723.83     
  1224.66        2500.00        2724.25     
  1223.18        2500.00        2724.17     
  1221.71        2500.00        2724.37     
  1220.23        2500.00        2724.58     
  1218.75        2500.00        2724.91     
  1217.27        2500.00        2725.06     
  1215.79        2500.00        2725.44     
  1214.32        2500.00        2725.77     
  1212.84        2500.00        2725.92     
  1211.36        2500.00        2725.86     
  1209.88        2500.00        2725.97     
  1208.40        2500.00        2726.07     
  1206.93        2500.00        2726.52     
  1205.45        2500.00        2726.79     
  1203.97        2500.00        2726.97     
  1202.49        2500.00        2726.99     
  1201.01        2500.00        2727.48     
  1199.54        2500.00        2727.77     
  1198.06        2500.00        2728.02     
  1196.58        2500.00        2727.49     
  1195.10        2500.00        2727.73     
  1193.62        2500.00        2727.98     
  1192.15        2500.00        2728.22     
  1190.67        2500.00        2728.47     
  1189.19        2500.00        2728.71     
  1187.71        2500.00        2728.96     
  1186.23        2500.00        2729.21     
  1184.76        2500.00        2729.53     
  1183.28        2500.00        2729.78     
  1181.80        2500.00        2730.04     
  1180.32        2500.00        2730.29     
  1178.84        2500.00        2730.55     
  1177.37        2500.00        2730.80     
  1175.89        2500.00        2731.06     
  1174.41        2500.00        2730.83     
  1172.93        2500.00        2731.09     
  1171.45        2500.00        2731.36     
  1169.98        2500.00        2731.62     
  1168.50        2500.00        2731.84     
  1167.02        2500.00        2732.05     
  1165.54        2500.00        2732.26     
  1164.06        2500.00        2732.47     
  1162.58        2500.00        2732.68     
  1161.11        2500.00        2732.88     
  1159.63        2500.00        2733.09     
  1158.15        2500.00        2733.30     
  1156.67        2500.00        2733.51     
  1155.19        2500.00        2734.35     
  1153.72        2500.00        2734.56     
  1152.24        2500.00        2734.77     
  1150.76        2500.00        2734.98     
  1149.28        2500.00        2735.76     
  1147.80        2500.00        2735.86     
  1146.33        2500.00        2736.00     
  1144.85        2500.00        2736.14     
  1143.37        2500.00        2736.32     
  1141.89        2500.00        2736.46     
  1140.41        2500.00        2736.60     
  1138.94        2500.00        2736.74     
  1137.46        2500.00        2736.88     
  1135.98        2500.00        2737.02     
  1134.50        2500.00        2737.16     
  1133.02        2500.00        2737.30     
  1131.55        2500.00        2737.45     
  1130.07        2500.00        2737.59     
  1128.59        2500.00        2737.73     
  1127.11        2500.00        2737.87     
  1125.63        2500.00        2738.01     
  1124.16        2500.00        2738.15     
  1122.68        2500.00        2738.23     
  1121.20        2500.00        2738.43     
  1119.72        2500.00        2738.51     
  1118.24        2500.00        2738.66     
  1116.77        2500.00        2738.80     
  1115.29        2500.00        2738.94     
  1113.81        2500.00        2739.08     
  1112.33        2500.00        2739.22     
  1110.85        2500.00        2739.36     
  1109.38        2500.00        2739.51     
  1107.90        2500.00        2739.65     
  1106.42        2500.00        2739.80     
  1104.94        2500.00        2739.92     
  1103.46        2500.00        2740.09     
  1101.99        2500.00        2740.33     
  1100.51        2500.00        2740.26     
  1099.03        2500.00        2740.69     
  1097.55        2500.00        2740.68     
  1096.07        2500.00        2740.75     
  1094.59        2500.00        2740.94     
  1093.12        2500.00        2741.07     
  1091.64        2500.00        2741.23     
  1090.16        2500.00        2741.42     
  1088.68        2500.00        2741.56     
  1087.20        2500.00        2741.72     
  1085.73        2500.00        2741.87     
  1084.25        2500.00        2742.01     
  1082.77        2500.00        2742.16     
  1081.29        2500.00        2742.30     
  1079.81        2500.00        2742.44     
  1078.34        2500.00        2742.63     
  1076.86        2500.00        2742.79     
  1075.38        2500.00        2742.94     
  1073.90        2500.00        2743.09     
  1072.42        2500.00        2743.24     
  1070.95        2500.00        2743.39     
  1069.47        2500.00        2743.55     
  1067.99        2500.00        2743.70     
  1066.51        2500.00        2743.85     
  1065.03        2500.00        2744.01     
  1063.56        2500.00        2744.16     
  1062.08        2500.00        2744.32     
  1060.60        2500.00        2744.47     
  1059.12        2500.00        2744.62     
  1057.64        2500.00        2744.78     
  1056.17        2500.00        2744.93     
  1054.69        2500.00        2745.09     
  1053.21        2500.00        2745.24     
  1051.73        2500.00        2745.40     
  1050.25        2500.00        2745.56     
  1048.78        2500.00        2745.71     
  1047.30        2500.00        2745.80     
  1045.82        2500.00        2746.02     
  1044.34        2500.00        2746.19     
  1042.86        2500.00        2746.34     
  1041.39        2500.00        2746.49     
  1039.91        2500.00        2746.65     
  1038.43        2500.00        2746.82     
  1036.95        2500.00        2746.98     
  1035.47        2500.00        2747.15     
  1034.00        2500.00        2747.31     
  1032.52        2500.00        2747.48     
  1031.04        2500.00        2747.65     
  1029.56        2500.00        2747.81     
  1028.08        2500.00        2747.97     
  1026.60        2500.00        2748.14     
  1025.13        2500.00        2748.31     
  1023.65        2500.00        2748.48     
  1022.17        2500.00        2748.64     
  1020.69        2500.00        2748.81     
  1019.21        2500.00        2748.99     
  1017.74        2500.00        2749.13     
  1016.26        2500.00        2749.33     
  1014.78        2500.00        2749.50     
  1013.30        2500.00        2749.68     
  1011.82        2500.00        2749.81     
  1010.35        2500.00        2750.02     
  1008.87        2500.00        2750.20     
  1007.39        2500.00        2750.37     
  1005.91        2500.00        2750.55     
  1004.43        2500.00        2750.91     
  1002.96        2500.00        2750.92     
  1001.48        2500.00        2751.26     
  1000.00        2500.00        2751.44     
