|6.6.6
Archiving\03_Data\eq/QFM_m1/GRV/GRV_3.tab                                 
           1
T(K)    
  0.000000000000000E+000
  0.000000000000000E+000
           0
           9
T(K)           P(bar)         melt(TH)       pxmn           Sp(TH)         O(HP)          Opx(TH)        Cpx(TH)        Cpx(TH)       
  2000.00        2500.00        99.3212       0.678760                 NaN            NaN            NaN            NaN            NaN
  1996.79        2500.00        99.3212       0.678832                 NaN            NaN            NaN            NaN            NaN
  1993.59        2500.00        99.3211       0.678904                 NaN            NaN            NaN            NaN            NaN
  1990.38        2500.00        99.3210       0.678976                 NaN            NaN            NaN            NaN            NaN
  1987.18        2500.00        99.3210       0.679048                 NaN            NaN            NaN            NaN            NaN
  1983.97        2500.00        99.3209       0.679121                 NaN            NaN            NaN            NaN            NaN
  1980.77        2500.00        99.3208       0.679193                 NaN            NaN            NaN            NaN            NaN
  1977.56        2500.00        99.3207       0.679265                 NaN            NaN            NaN            NaN            NaN
  1974.36        2500.00        99.3207       0.679338                 NaN            NaN            NaN            NaN            NaN
  1971.15        2500.00        99.3206       0.679410                 NaN            NaN            NaN            NaN            NaN
  1967.95        2500.00        99.3205       0.679483                 NaN            NaN            NaN            NaN            NaN
  1964.74        2500.00        99.3204       0.679555                 NaN            NaN            NaN            NaN            NaN
  1961.54        2500.00        99.3204       0.679628                 NaN            NaN            NaN            NaN            NaN
  1958.33        2500.00        99.3203       0.679700                 NaN            NaN            NaN            NaN            NaN
  1955.13        2500.00        99.3202       0.679773                 NaN            NaN            NaN            NaN            NaN
  1951.92        2500.00        99.3202       0.679846                 NaN            NaN            NaN            NaN            NaN
  1948.72        2500.00        99.3201       0.679918                 NaN            NaN            NaN            NaN            NaN
  1945.51        2500.00        99.3200       0.679991                 NaN            NaN            NaN            NaN            NaN
  1942.31        2500.00        99.3199       0.680064                 NaN            NaN            NaN            NaN            NaN
  1939.10        2500.00        99.3199       0.680136                 NaN            NaN            NaN            NaN            NaN
  1935.90        2500.00        99.3198       0.680209                 NaN            NaN            NaN            NaN            NaN
  1932.69        2500.00        99.3197       0.680282                 NaN            NaN            NaN            NaN            NaN
  1929.49        2500.00        99.3196       0.680355                 NaN            NaN            NaN            NaN            NaN
  1926.28        2500.00        99.3196       0.680428                 NaN            NaN            NaN            NaN            NaN
  1923.08        2500.00        99.3195       0.680501                 NaN            NaN            NaN            NaN            NaN
  1919.87        2500.00        99.3194       0.680574                 NaN            NaN            NaN            NaN            NaN
  1916.67        2500.00        99.3194       0.680646                 NaN            NaN            NaN            NaN            NaN
  1913.46        2500.00        99.3193       0.680719                 NaN            NaN            NaN            NaN            NaN
  1910.26        2500.00        99.3192       0.680792                 NaN            NaN            NaN            NaN            NaN
  1907.05        2500.00        99.3191       0.680866                 NaN            NaN            NaN            NaN            NaN
  1903.85        2500.00        99.3191       0.680939                 NaN            NaN            NaN            NaN            NaN
  1900.64        2500.00        99.3190       0.681012                 NaN            NaN            NaN            NaN            NaN
  1897.44        2500.00        99.3189       0.681085                 NaN            NaN            NaN            NaN            NaN
  1894.23        2500.00        99.3188       0.681158                 NaN            NaN            NaN            NaN            NaN
  1891.03        2500.00        99.3188       0.681231                 NaN            NaN            NaN            NaN            NaN
  1887.82        2500.00        99.3187       0.681304                 NaN            NaN            NaN            NaN            NaN
  1884.62        2500.00        99.3186       0.681378                 NaN            NaN            NaN            NaN            NaN
  1881.41        2500.00        99.3185       0.681451                 NaN            NaN            NaN            NaN            NaN
  1878.21        2500.00        99.3185       0.681524                 NaN            NaN            NaN            NaN            NaN
  1875.00        2500.00        99.3184       0.681598                 NaN            NaN            NaN            NaN            NaN
  1871.79        2500.00        99.3183       0.681671                 NaN            NaN            NaN            NaN            NaN
  1868.59        2500.00        99.3183       0.681744                 NaN            NaN            NaN            NaN            NaN
  1865.38        2500.00        99.3182       0.681818                 NaN            NaN            NaN            NaN            NaN
  1862.18        2500.00        99.3181       0.681891                 NaN            NaN            NaN            NaN            NaN
  1858.97        2500.00        99.3180       0.681964                 NaN            NaN            NaN            NaN            NaN
  1855.77        2500.00        99.3180       0.682038                 NaN            NaN            NaN            NaN            NaN
  1852.56        2500.00        99.3179       0.682111                 NaN            NaN            NaN            NaN            NaN
  1849.36        2500.00        99.3178       0.682185                 NaN            NaN            NaN            NaN            NaN
  1846.15        2500.00        99.3177       0.682259                 NaN            NaN            NaN            NaN            NaN
  1842.95        2500.00        99.3177       0.682332                 NaN            NaN            NaN            NaN            NaN
  1839.74        2500.00        99.3176       0.682406                 NaN            NaN            NaN            NaN            NaN
  1836.54        2500.00        99.3175       0.682479                 NaN            NaN            NaN            NaN            NaN
  1833.33        2500.00        99.3174       0.682553                 NaN            NaN            NaN            NaN            NaN
  1830.13        2500.00        99.3162       0.682628       0.121129E-002            NaN            NaN            NaN            NaN
  1826.92        2500.00        99.3016       0.682721       0.156653E-001            NaN            NaN            NaN            NaN
  1823.72        2500.00        99.2872       0.682813       0.299628E-001            NaN            NaN            NaN            NaN
  1820.51        2500.00        99.2728       0.682906       0.442641E-001            NaN            NaN            NaN            NaN
  1817.31        2500.00        99.2591       0.682997       0.579420E-001            NaN            NaN            NaN            NaN
  1814.10        2500.00        99.2453       0.683089       0.716235E-001            NaN            NaN            NaN            NaN
  1810.90        2500.00        99.2315       0.683180       0.853088E-001            NaN            NaN            NaN            NaN
  1807.69        2500.00        99.2177       0.683271       0.989977E-001            NaN            NaN            NaN            NaN
  1804.49        2500.00        99.2039       0.683363       0.112690                 NaN            NaN            NaN            NaN
  1801.28        2500.00        99.1902       0.683454       0.126387                 NaN            NaN            NaN            NaN
  1798.08        2500.00        99.1764       0.683546       0.140087                 NaN            NaN            NaN            NaN
  1794.87        2500.00        99.1626       0.683637       0.153791                 NaN            NaN            NaN            NaN
  1791.67        2500.00        99.1497       0.683727       0.166584                 NaN            NaN            NaN            NaN
  1788.46        2500.00        99.1368       0.683817       0.179381                 NaN            NaN            NaN            NaN
  1785.26        2500.00        99.1239       0.683907       0.192182                 NaN            NaN            NaN            NaN
  1782.05        2500.00        99.1110       0.683996       0.204986                 NaN            NaN            NaN            NaN
  1778.85        2500.00        99.0981       0.684086       0.217793                 NaN            NaN            NaN            NaN
  1775.64        2500.00        99.0852       0.684176       0.230604                 NaN            NaN            NaN            NaN
  1772.44        2500.00        99.0723       0.684266       0.243418                 NaN            NaN            NaN            NaN
  1769.23        2500.00        99.0594       0.684356       0.256235                 NaN            NaN            NaN            NaN
  1766.03        2500.00        99.0470       0.684445       0.268530                 NaN            NaN            NaN            NaN
  1762.82        2500.00        99.0346       0.684534       0.280828                 NaN            NaN            NaN            NaN
  1759.62        2500.00        98.4875       0.684819       0.292576       0.535056                 NaN            NaN            NaN
  1756.41        2500.00        97.7309       0.685179       0.304291        1.27962                 NaN            NaN            NaN
  1753.21        2500.00        96.9812       0.685534       0.315477        2.01779                 NaN            NaN            NaN
  1750.00        2500.00        96.2307       0.685888       0.326674        2.75669                 NaN            NaN            NaN
  1746.79        2500.00        95.4796       0.686240       0.337882        3.49632                 NaN            NaN            NaN
  1743.59        2500.00        94.7276       0.686590       0.349100        4.23667                 NaN            NaN            NaN
  1740.38        2500.00        93.9662       0.686942       0.359706        4.98710                 NaN            NaN            NaN
  1737.18        2500.00        93.2041       0.687292       0.370322        5.73826                 NaN            NaN            NaN
  1733.97        2500.00        92.4413       0.687641       0.380947        6.49014                 NaN            NaN            NaN
  1730.77        2500.00        91.6777       0.687987       0.391582        7.24273                 NaN            NaN            NaN
  1727.56        2500.00        90.9134       0.688331       0.402226        7.99602                 NaN            NaN            NaN
  1724.36        2500.00        90.1484       0.688673       0.412880        8.75002                 NaN            NaN            NaN
  1721.15        2500.00        89.3827       0.689013       0.423543        9.50470                 NaN            NaN            NaN
  1717.95        2500.00        88.6164       0.689351       0.434214        10.2601                 NaN            NaN            NaN
  1714.74        2500.00        87.8550       0.689686       0.444013        11.0113                 NaN            NaN            NaN
  1711.54        2500.00        87.0929       0.690018       0.453820        11.7633                 NaN            NaN            NaN
  1708.33        2500.00        86.3301       0.690349       0.463635        12.5159                 NaN            NaN            NaN
  1705.13        2500.00        85.5668       0.690677       0.473458        13.2691                 NaN            NaN            NaN
  1701.92        2500.00        84.8027       0.691002       0.483288        14.0230                 NaN            NaN            NaN
  1698.72        2500.00        84.0381       0.691326       0.493125        14.7775                 NaN            NaN            NaN
  1695.51        2500.00        83.2728       0.691646       0.502970        15.5326                 NaN            NaN            NaN
  1692.31        2500.00        82.5068       0.691965       0.512822        16.2884                 NaN            NaN            NaN
  1689.10        2500.00        81.7589       0.692275       0.522030        17.0268                 NaN            NaN            NaN
  1685.90        2500.00        81.0103       0.692583       0.531244        17.7658                 NaN            NaN            NaN
  1682.69        2500.00        80.2612       0.692888       0.540464        18.5054                 NaN            NaN            NaN
  1679.49        2500.00        79.5116       0.693191       0.549690        19.2455                 NaN            NaN            NaN
  1676.28        2500.00        78.7764       0.693486       0.558583        19.9715                 NaN            NaN            NaN
  1673.08        2500.00        78.0407       0.693778       0.567482        20.6980                 NaN            NaN            NaN
  1669.87        2500.00        77.3135       0.694065       0.576110        21.4163                 NaN            NaN            NaN
  1666.67        2500.00        75.9138       0.694989       0.584747        21.9536       0.852849                 NaN            NaN
  1663.46        2500.00        74.0356       0.696456       0.590275        22.1974        2.48033                 NaN            NaN
  1660.26        2500.00        72.1496       0.697926       0.595825        22.4421        4.11462                 NaN            NaN
  1657.05        2500.00        70.2557       0.699401       0.601396        22.6877        5.75575                 NaN            NaN
  1653.85        2500.00        68.3540       0.700880       0.606990        22.9344        7.40376                 NaN            NaN
  1650.64        2500.00        66.4444       0.702363       0.612605        23.1820        9.05867                 NaN            NaN
  1647.44        2500.00        64.5269       0.703850       0.618241        23.4305        10.7205                 NaN            NaN
  1644.23        2500.00        62.6014       0.705340       0.623900        23.6801        12.3893                 NaN            NaN
  1641.03        2500.00        60.6679       0.706835       0.629580        23.9306        14.0651                 NaN            NaN
  1637.82        2500.00        59.2476       0.707971       0.630973        24.0947        15.3188                 NaN            NaN
  1634.62        2500.00        57.8228       0.709110       0.632369        24.2594        16.5764                 NaN            NaN
  1631.41        2500.00        56.3935       0.710250       0.633767        24.4245        17.8380                 NaN            NaN
  1628.21        2500.00        54.9599       0.711393       0.635169        24.5901        19.1035                 NaN            NaN
  1625.00        2500.00        53.5217       0.712537       0.636574        24.7561        20.3731                 NaN            NaN
  1621.79        2500.00        52.0791       0.713684       0.637982        24.9227        21.6466                 NaN            NaN
  1618.59        2500.00        50.6319       0.714833       0.639393        25.0897        22.9242                 NaN            NaN
  1615.38        2500.00        49.1803       0.715983       0.640808        25.2572        24.2057                 NaN            NaN
  1612.18        2500.00        48.0141       0.716939       0.638428        25.3761        25.2545                 NaN            NaN
  1608.97        2500.00        46.8449       0.717897       0.636040        25.4953        26.3059                 NaN            NaN
  1605.77        2500.00        45.6727       0.718855       0.633645        25.6147        27.3601                 NaN            NaN
  1602.56        2500.00        44.4975       0.719815       0.631242        25.7344        28.4170                 NaN            NaN
  1599.36        2500.00        43.3194       0.720776       0.628833        25.8544        29.4766                 NaN            NaN
  1596.15        2500.00        42.1382       0.721739       0.626415        25.9747        30.5389                 NaN            NaN
  1592.95        2500.00        40.9540       0.722703       0.623990        26.0953        31.6040                 NaN            NaN
  1589.74        2500.00        39.7668       0.723668       0.621557        26.2161        32.6719                 NaN            NaN
  1586.54        2500.00        38.7099       0.724551       0.613993        26.3182        33.6334                 NaN            NaN
  1583.33        2500.00        37.6506       0.725435       0.606410        26.4205        34.5971                 NaN            NaN
  1580.13        2500.00        36.5888       0.726321       0.598808        26.5230        35.5630                 NaN            NaN
  1576.92        2500.00        35.5246       0.727208       0.591186        26.6258        36.5312                 NaN            NaN
  1573.72        2500.00        34.4579       0.728096       0.583545        26.7287        37.5017                 NaN            NaN
  1570.51        2500.00        33.3888       0.728985       0.575884        26.8319        38.4745                 NaN            NaN
  1567.31        2500.00        32.3172       0.729875       0.568204        26.9353        39.4495                 NaN            NaN
  1564.10        2500.00        31.2431       0.730766       0.560505        27.0389        40.4267                 NaN            NaN
  1560.90        2500.00        30.2025       0.731639       0.549887        27.1420        41.3740                 NaN            NaN
  1557.69        2500.00        29.0383       0.732619       0.541981        27.2531        41.7800       0.654090                 NaN
  1554.49        2500.00        27.6426       0.733805       0.542345        27.3788        41.1467        2.55579                 NaN
  1551.28        2500.00        26.2427       0.734994       0.542710        27.5049        40.5112        4.46359                 NaN
  1548.08        2500.00        24.8172       0.736223       0.540423        27.6435        40.0653        6.19734                 NaN
  1544.87        2500.00        23.2378       0.737621       0.523542        27.8336        40.7107        1.06572        5.89095     
  1541.67        2500.00        23.2365       0.737644       0.523560        27.8341        40.7114        1.06574        5.89105     
  1538.46        2500.00        20.2559       0.740294       0.481150        28.2076        42.4503        3.84324        4.02153     
