|6.6.6
Archiving\03_Data\fracLP/QFM_m5/TIS/TIS_6.tab                             
           1
T(K)    
  0.000000000000000E+000
  0.000000000000000E+000
           0
           3
T(K)           P(bar)         rho,kg/m3     
  2000.00        500.000        6385.24     
  1997.49        500.000        6378.68     
  1994.99        500.000        6381.68     
  1992.48        500.000        6384.66     
  1989.97        500.000        6387.64     
  1987.47        500.000        6390.58     
  1984.96        500.000        6393.51     
  1982.46        500.000        6396.43     
  1979.95        500.000        6399.33     
  1977.44        500.000        6402.21     
  1974.94        500.000        6405.08     
  1972.43        500.000        6407.93     
  1969.92        500.000        6410.77     
  1967.42        500.000        6413.60     
  1964.91        500.000        6416.39     
  1962.41        500.000        6419.18     
  1959.90        500.000        6419.01     
  1957.39        500.000        6424.71     
  1954.89        500.000        6427.45     
  1952.38        500.000        6430.18     
  1949.87        500.000        6432.89     
  1947.37        500.000        6435.59     
  1944.86        500.000        6438.27     
  1942.36        500.000        6440.95     
  1939.85        500.000        6443.60     
  1937.34        500.000        6446.25     
  1934.84        500.000        6448.88     
  1932.33        500.000        6451.49     
  1929.82        500.000        6454.09     
  1927.32        500.000        6456.68     
  1924.81        500.000        6459.25     
  1922.31        500.000        6461.82     
  1919.80        500.000        6464.36     
  1917.29        500.000        6466.89     
  1914.79        500.000        6469.42     
  1912.28        500.000        6471.93     
  1909.77        500.000        6474.42     
  1907.27        500.000        6476.91     
  1904.76        500.000        6479.38     
  1902.26        500.000        6481.84     
  1899.75        500.000        6484.29     
  1897.24        500.000        6486.72     
  1894.74        500.000        6489.15     
  1892.23        500.000        6491.56     
  1889.72        500.000        6493.96     
  1887.22        500.000        6496.35     
  1884.71        500.000        6498.72     
  1882.21        500.000        6501.09     
  1879.70        500.000        6503.44     
  1877.19        500.000        6505.79     
  1874.69        500.000        6508.12     
  1872.18        500.000        6510.44     
  1869.67        500.000        6512.75     
  1867.17        500.000        6515.06     
  1864.66        500.000        6517.34     
  1862.16        500.000        6519.62     
  1859.65        500.000        6521.88     
  1857.14        500.000        6524.14     
  1854.64        500.000        6526.26     
  1852.13        500.000        6528.62     
  1849.62        500.000        6530.86     
  1847.12        500.000        6533.06     
  1844.61        500.000        6535.49     
  1842.11        500.000        6537.47     
  1839.60        500.000        6539.65     
  1837.09        500.000        6541.83     
  1834.59        500.000        6543.99     
  1832.08        500.000        6546.15     
  1829.57        500.000        6548.30     
  1827.07        500.000        6550.43     
  1824.56        500.000        6552.56     
  1822.06        500.000        6554.68     
  1819.55        500.000        6556.79     
  1817.04        500.000        6558.89     
  1814.54        500.000        6560.98     
  1812.03        500.000        6563.06     
  1809.52        500.000        6565.14     
  1807.02        500.000        6567.20     
  1804.51        500.000        6569.26     
  1802.01        500.000        6571.20     
  1799.50        500.000        6573.34     
  1796.99        500.000        6575.37     
  1794.49        500.000        6577.39     
  1791.98        500.000        6579.40     
  1789.47        500.000        6581.40     
  1786.97        500.000        6583.40     
  1784.46        500.000        6585.38     
  1781.95        500.000        6587.37     
  1779.45        500.000        6589.33     
  1776.94        500.000        6591.29     
  1774.44        500.000        6593.25     
  1771.93        500.000        6593.47     
  1769.42        500.000        6596.23     
  1766.92        500.000        6599.06     
  1764.41        500.000        6600.98     
  1761.90        500.000        6596.12     
  1759.40        500.000        6604.80     
  1756.89        500.000        6606.70     
  1754.39        500.000        6608.59     
  1751.88        500.000        6610.24     
  1749.37        500.000        6612.34     
  1746.87        500.000        6614.22     
  1744.36        500.000        6616.07     
  1741.85        500.000        6617.92     
  1739.35        500.000        6619.77     
  1736.84        500.000        6621.60     
  1734.34        500.000        6623.44     
  1731.83        500.000        6625.26     
  1729.32        500.000        6627.08     
  1726.82        500.000        6628.88     
  1724.31        500.000        6630.68     
  1721.80        500.000        6632.48     
  1719.30        500.000        6634.27     
  1716.79        500.000        6636.05     
  1714.29        500.000        6637.82     
  1711.78        500.000        6639.59     
  1709.27        500.000        6641.34     
  1706.77        500.000        6643.10     
  1704.26        500.000        6644.84     
  1701.75        500.000        6646.58     
  1699.25        500.000        6648.31     
  1696.74        500.000        6650.04     
  1694.24        500.000        6651.76     
  1691.73        500.000        6651.82     
  1689.22        500.000        6655.18     
  1686.72        500.000        6656.89     
  1684.21        500.000        6658.57     
  1681.70        500.000        6660.26     
  1679.20        500.000        6661.94     
  1676.69        500.000        6665.85     
  1674.19        500.000        6665.28     
  1671.68        500.000        6665.08     
  1669.17        500.000        6668.59     
  1666.67        500.000        6670.24     
  1664.16        500.000        6672.06     
  1661.65        500.000        6673.52     
  1659.15        500.000        6673.64     
  1656.64        500.000        6676.26     
  1654.14        500.000        6678.39     
  1651.63        500.000        6680.00     
  1649.12        500.000        6681.61     
  1646.62        500.000        6683.21     
  1644.11        500.000        6684.80     
  1641.60        500.000        6686.39     
  1639.10        500.000        6687.97     
  1636.59        500.000        6689.55     
  1634.09        500.000        6691.11     
  1631.58        500.000        6692.68     
  1629.07        500.000        6694.24     
  1626.57        500.000        6695.79     
  1624.06        500.000        6693.47     
  1621.55        500.000        6694.28     
  1619.05        500.000        6695.73     
  1616.54        500.000        6697.19     
  1614.04        500.000        6698.61     
  1611.53        500.000        6700.04     
  1609.02        500.000        6701.38     
  1606.52        500.000        6703.00     
  1604.01        500.000        6704.65     
  1601.50        500.000        6502.50     
  1599.00        500.000        3310.92     
  1596.49        500.000        3302.11     
  1593.98        500.000        3302.86     
  1591.48        500.000        3305.24     
  1588.97        500.000        3304.21     
  1586.47        500.000        3306.03     
  1583.96        500.000        3311.38     
  1581.45        500.000        3307.79     
  1578.95        500.000        3309.34     
  1576.44        500.000        3311.06     
  1573.93        500.000        3236.32     
  1571.43        500.000        3215.37     
  1568.92        500.000        3214.80     
  1566.42        500.000        3215.84     
  1563.91        500.000        3218.73     
  1561.40        500.000        3221.19     
  1558.90        500.000        3217.74     
  1556.39        500.000        3218.30     
  1553.88        500.000        3219.44     
  1551.38        500.000        3219.89     
  1548.87        500.000        3220.89     
  1546.37        500.000        3221.05     
  1543.86        500.000        3221.96     
  1541.35        500.000        3222.47     
  1538.85        500.000        3223.48     
  1536.34        500.000        3224.35     
  1533.83        500.000        3224.83     
  1531.33        500.000        3224.70     
  1528.82        500.000        3226.24     
  1526.32        500.000        3226.43     
  1523.81        500.000        3227.34     
  1521.30        500.000        3228.02     
  1518.80        500.000        3229.13     
  1516.29        500.000        3228.97     
  1513.78        500.000        3224.93     
  1511.28        500.000        3216.48     
  1508.77        500.000        3217.43     
  1506.27        500.000        3218.62     
  1503.76        500.000        3220.40     
  1501.25        500.000        3219.01     
  1498.75        500.000        3216.38     
  1496.24        500.000        3217.93     
  1493.73        500.000        3219.70     
  1491.23        500.000        3221.56     
  1488.72        500.000        3223.35     
  1486.22        500.000        3225.42     
  1483.71        500.000        3226.88     
  1481.20        500.000        3228.87     
  1478.70        500.000        3230.44     
  1476.19        500.000        3232.61     
  1473.68        500.000        3234.65     
  1471.18        500.000        3236.44     
  1468.67        500.000        3237.58     
  1466.17        500.000        3240.00     
  1463.66        500.000        3241.80     
  1461.15        500.000        3243.52     
  1458.65        500.000        3245.24     
  1456.14        500.000        3246.43     
  1453.63        500.000        3248.74     
  1451.13        500.000        3251.03     
  1448.62        500.000        3252.57     
  1446.12        500.000        3275.40     
  1443.61        500.000        3278.30     
  1441.10        500.000        3279.17     
  1438.60        500.000        3280.10     
  1436.09        500.000        3163.74     
  1433.58        500.000        3139.99     
  1431.08        500.000        3140.32     
  1428.57        500.000        3140.65     
  1426.07        500.000        3140.98     
  1423.56        500.000        3141.33     
  1421.05        500.000        3141.71     
  1418.55        500.000        3142.01     
  1416.04        500.000        3142.35     
  1413.53        500.000        3142.74     
  1411.03        500.000        3143.18     
  1408.52        500.000        3143.57     
  1406.02        500.000        3143.91     
  1403.51        500.000        3144.28     
  1401.00        500.000        3144.69     
  1398.50        500.000        3145.07     
  1395.99        500.000        3145.44     
  1393.48        500.000        3145.81     
  1390.98        500.000        3146.18     
  1388.47        500.000        3146.59     
  1385.96        500.000        3146.96     
  1383.46        500.000        3147.32     
  1380.95        500.000        3147.65     
  1378.45        500.000        3148.02     
  1375.94        500.000        3148.37     
  1373.43        500.000        3148.61     
  1370.93        500.000        3149.08     
  1368.42        500.000        3149.33     
  1365.91        500.000        3149.62     
  1363.41        500.000        3149.93     
  1360.90        500.000        3150.20     
  1358.40        500.000        3150.45     
  1355.89        500.000        3150.70     
  1353.38        500.000        3150.90     
  1350.88        500.000        3151.10     
  1348.37        500.000        3163.10     
  1345.86        500.000        3149.39     
  1343.36        500.000        3160.12     
  1340.85        500.000        3158.11     
  1338.35        500.000        3156.18     
  1335.84        500.000        3206.12     
  1333.33        500.000        3170.67     
  1330.83        500.000        3130.26     
  1328.32        500.000        3180.19     
  1325.81        500.000        3158.16     
  1323.31        500.000        3147.70     
  1320.80        500.000        3146.57     
  1318.30        500.000        3145.82     
  1315.79        500.000        3146.84     
  1313.28        500.000        3149.01     
  1310.78        500.000        3151.62     
  1308.27        500.000        3154.22     
  1305.76        500.000        3156.86     
  1303.26        500.000        3159.42     
  1300.75        500.000        3161.22     
  1298.25        500.000        3166.26     
  1295.74        500.000        3168.00     
  1293.23        500.000        3171.70     
  1290.73        500.000        3173.65     
  1288.22        500.000        3177.98     
  1285.71        500.000        3173.95     
  1283.21        500.000        3169.79     
  1280.70        500.000        3171.21     
  1278.20        500.000        2907.02     
  1275.69        500.000        2719.02     
  1273.18        500.000        2779.80     
  1270.68        500.000        2781.42     
  1268.17        500.000        2780.77     
  1265.66        500.000        2779.87     
  1263.16        500.000        2778.73     
  1260.65        500.000        2777.25     
  1258.15        500.000        2775.56     
  1255.64        500.000        2773.80     
  1253.13        500.000        2771.82     
  1250.63        500.000        2769.72     
  1248.12        500.000        2767.45     
  1245.61        500.000        2765.08     
  1243.11        500.000        2762.58     
  1240.60        500.000        2760.06     
  1238.10        500.000        2757.68     
  1235.59        500.000        2755.03     
  1233.08        500.000        2752.60     
  1230.58        500.000        2750.07     
  1228.07        500.000        2626.78     
  1225.56        500.000        2628.21     
  1223.06        500.000        2630.00     
  1220.55        500.000        2631.68     
  1218.05        500.000        2633.40     
  1215.54        500.000        2635.07     
  1213.03        500.000        2641.39     
  1210.53        500.000        2640.98     
  1208.02        500.000        2640.37     
  1205.51        500.000        2639.29     
  1203.01        500.000        2637.77     
  1200.50        500.000        2635.63     
  1197.99        500.000        2631.09     
  1195.49        500.000        2626.48     
  1192.98        500.000        2615.82     
  1190.48        500.000        2612.97     
  1187.97        500.000        2613.45     
  1185.46        500.000        2613.38     
  1182.96        500.000        2613.64     
  1180.45        500.000        2613.91     
  1177.94        500.000        2614.71     
  1175.44        500.000        2614.54     
  1172.93        500.000        2615.79     
  1170.43        500.000        2616.06     
  1167.92        500.000        2616.55     
  1165.41        500.000        2617.41     
  1162.91        500.000        2617.51     
  1160.40        500.000        2617.61     
  1157.89        500.000        2617.73     
  1155.39        500.000        2617.82     
  1152.88        500.000        2617.93     
  1150.38        500.000        2618.01     
  1147.87        500.000        2618.15     
  1145.36        500.000        2618.26     
  1142.86        500.000        2618.38     
  1140.35        500.000        2618.49     
  1137.84        500.000        2618.67     
  1135.34        500.000        2618.66     
  1132.83        500.000        2618.76     
  1130.33        500.000        2618.88     
  1127.82        500.000        2618.98     
  1125.31        500.000        2619.09     
  1122.81        500.000        2619.20     
  1120.30        500.000        2619.31     
  1117.79        500.000        2619.42     
  1115.29        500.000        2619.39     
  1112.78        500.000        2619.64     
  1110.28        500.000        2619.74     
  1107.77        500.000        2619.85     
  1105.26        500.000        2619.96     
  1102.76        500.000        2620.07     
  1100.25        500.000        2620.19     
  1097.74        500.000        2620.29     
  1095.24        500.000        2620.40     
  1092.73        500.000        2620.51     
  1090.23        500.000        2620.62     
  1087.72        500.000        2620.72     
  1085.21        500.000        2620.83     
  1082.71        500.000        2620.93     
  1080.20        500.000        2621.04     
  1077.69        500.000        2621.14     
  1075.19        500.000        2621.25     
  1072.68        500.000        2621.35     
  1070.18        500.000        2621.46     
  1067.67        500.000        2621.55     
  1065.16        500.000        2621.65     
  1062.66        500.000        2621.76     
  1060.15        500.000        2621.86     
  1057.64        500.000        2621.96     
  1055.14        500.000        2622.09     
  1052.63        500.000        2622.19     
  1050.13        500.000        2622.28     
  1047.62        500.000        2622.38     
  1045.11        500.000        2622.48     
  1042.61        500.000        2622.59     
  1040.10        500.000        2622.82     
  1037.59        500.000        2622.93     
  1035.09        500.000        2623.03     
  1032.58        500.000        2623.04     
  1030.08        500.000        2623.10     
  1027.57        500.000        2623.21     
  1025.06        500.000        2623.31     
  1022.56        500.000        2623.55     
  1020.05        500.000        2623.66     
  1017.54        500.000        2623.76     
  1015.04        500.000        2623.72     
  1012.53        500.000        2623.82     
  1010.03        500.000        2624.07     
  1007.52        500.000        2623.11     
  1005.01        500.000        2624.13     
  1002.51        500.000        2624.23     
  1000.00        500.000        2624.37     
