|6.6.6
Archiving\03_Data\eq/QFM_m2.75/GRV/GRV_3.tab                              
           1
T(K)    
  0.000000000000000E+000
  0.000000000000000E+000
           0
           9
T(K)           P(bar)         melt(TH)       pxmn           Sp(TH)         O(HP)          Opx(TH)        Cpx(TH)        Cpx(TH)       
  2000.00        2500.00        99.3197       0.680279                 NaN            NaN            NaN            NaN            NaN
  1996.79        2500.00        99.3196       0.680352                 NaN            NaN            NaN            NaN            NaN
  1993.59        2500.00        99.3196       0.680426                 NaN            NaN            NaN            NaN            NaN
  1990.38        2500.00        99.3195       0.680499                 NaN            NaN            NaN            NaN            NaN
  1987.18        2500.00        99.3194       0.680573                 NaN            NaN            NaN            NaN            NaN
  1983.97        2500.00        99.3194       0.680646                 NaN            NaN            NaN            NaN            NaN
  1980.77        2500.00        99.3193       0.680720                 NaN            NaN            NaN            NaN            NaN
  1977.56        2500.00        99.3192       0.680794                 NaN            NaN            NaN            NaN            NaN
  1974.36        2500.00        99.3191       0.680868                 NaN            NaN            NaN            NaN            NaN
  1971.15        2500.00        99.3191       0.680942                 NaN            NaN            NaN            NaN            NaN
  1967.95        2500.00        99.3190       0.681015                 NaN            NaN            NaN            NaN            NaN
  1964.74        2500.00        99.3189       0.681089                 NaN            NaN            NaN            NaN            NaN
  1961.54        2500.00        99.3188       0.681163                 NaN            NaN            NaN            NaN            NaN
  1958.33        2500.00        99.3188       0.681238                 NaN            NaN            NaN            NaN            NaN
  1955.13        2500.00        99.3187       0.681312                 NaN            NaN            NaN            NaN            NaN
  1951.92        2500.00        99.3186       0.681386                 NaN            NaN            NaN            NaN            NaN
  1948.72        2500.00        99.3185       0.681460                 NaN            NaN            NaN            NaN            NaN
  1945.51        2500.00        99.3185       0.681535                 NaN            NaN            NaN            NaN            NaN
  1942.31        2500.00        99.3184       0.681609                 NaN            NaN            NaN            NaN            NaN
  1939.10        2500.00        99.3183       0.681683                 NaN            NaN            NaN            NaN            NaN
  1935.90        2500.00        99.3182       0.681758                 NaN            NaN            NaN            NaN            NaN
  1932.69        2500.00        99.3182       0.681832                 NaN            NaN            NaN            NaN            NaN
  1929.49        2500.00        99.3181       0.681907                 NaN            NaN            NaN            NaN            NaN
  1926.28        2500.00        99.3180       0.681982                 NaN            NaN            NaN            NaN            NaN
  1923.08        2500.00        99.3179       0.682056                 NaN            NaN            NaN            NaN            NaN
  1919.87        2500.00        99.3179       0.682131                 NaN            NaN            NaN            NaN            NaN
  1916.67        2500.00        99.3178       0.682206                 NaN            NaN            NaN            NaN            NaN
  1913.46        2500.00        99.3177       0.682281                 NaN            NaN            NaN            NaN            NaN
  1910.26        2500.00        99.3176       0.682356                 NaN            NaN            NaN            NaN            NaN
  1907.05        2500.00        99.3176       0.682430                 NaN            NaN            NaN            NaN            NaN
  1903.85        2500.00        99.3175       0.682506                 NaN            NaN            NaN            NaN            NaN
  1900.64        2500.00        99.3174       0.682581                 NaN            NaN            NaN            NaN            NaN
  1897.44        2500.00        99.3173       0.682656                 NaN            NaN            NaN            NaN            NaN
  1894.23        2500.00        99.3173       0.682731                 NaN            NaN            NaN            NaN            NaN
  1891.03        2500.00        99.3172       0.682806                 NaN            NaN            NaN            NaN            NaN
  1887.82        2500.00        99.3171       0.682881                 NaN            NaN            NaN            NaN            NaN
  1884.62        2500.00        99.3170       0.682957                 NaN            NaN            NaN            NaN            NaN
  1881.41        2500.00        99.3170       0.683032                 NaN            NaN            NaN            NaN            NaN
  1878.21        2500.00        99.3169       0.683107                 NaN            NaN            NaN            NaN            NaN
  1875.00        2500.00        99.3168       0.683183                 NaN            NaN            NaN            NaN            NaN
  1871.79        2500.00        99.3167       0.683259                 NaN            NaN            NaN            NaN            NaN
  1868.59        2500.00        99.3167       0.683334                 NaN            NaN            NaN            NaN            NaN
  1865.38        2500.00        99.3166       0.683410                 NaN            NaN            NaN            NaN            NaN
  1862.18        2500.00        99.3165       0.683485                 NaN            NaN            NaN            NaN            NaN
  1858.97        2500.00        99.3164       0.683561                 NaN            NaN            NaN            NaN            NaN
  1855.77        2500.00        99.3164       0.683637                 NaN            NaN            NaN            NaN            NaN
  1852.56        2500.00        99.3163       0.683713                 NaN            NaN            NaN            NaN            NaN
  1849.36        2500.00        99.3162       0.683789                 NaN            NaN            NaN            NaN            NaN
  1846.15        2500.00        99.3161       0.683865                 NaN            NaN            NaN            NaN            NaN
  1842.95        2500.00        99.3161       0.683941                 NaN            NaN            NaN            NaN            NaN
  1839.74        2500.00        99.3160       0.684017                 NaN            NaN            NaN            NaN            NaN
  1836.54        2500.00        99.3159       0.684093                 NaN            NaN            NaN            NaN            NaN
  1833.33        2500.00        99.3158       0.684169                 NaN            NaN            NaN            NaN            NaN
  1830.13        2500.00        99.3158       0.684245                 NaN            NaN            NaN            NaN            NaN
  1826.92        2500.00        99.3157       0.684321                 NaN            NaN            NaN            NaN            NaN
  1823.72        2500.00        99.3156       0.684398                 NaN            NaN            NaN            NaN            NaN
  1820.51        2500.00        99.3138       0.684476       0.176858E-002            NaN            NaN            NaN            NaN
  1817.31        2500.00        99.3005       0.684571       0.149458E-001            NaN            NaN            NaN            NaN
  1814.10        2500.00        99.2872       0.684665       0.281268E-001            NaN            NaN            NaN            NaN
  1810.90        2500.00        99.2739       0.684760       0.413117E-001            NaN            NaN            NaN            NaN
  1807.69        2500.00        99.2606       0.684854       0.545003E-001            NaN            NaN            NaN            NaN
  1804.49        2500.00        99.2474       0.684949       0.676927E-001            NaN            NaN            NaN            NaN
  1801.28        2500.00        99.2341       0.685044       0.808889E-001            NaN            NaN            NaN            NaN
  1798.08        2500.00        99.2208       0.685138       0.940889E-001            NaN            NaN            NaN            NaN
  1794.87        2500.00        99.2075       0.685233       0.107293                 NaN            NaN            NaN            NaN
  1791.67        2500.00        99.1949       0.685327       0.119761                 NaN            NaN            NaN            NaN
  1788.46        2500.00        99.1823       0.685420       0.132233                 NaN            NaN            NaN            NaN
  1785.26        2500.00        99.1698       0.685514       0.144708                 NaN            NaN            NaN            NaN
  1782.05        2500.00        99.1572       0.685608       0.157187                 NaN            NaN            NaN            NaN
  1778.85        2500.00        99.1449       0.685701       0.169389                 NaN            NaN            NaN            NaN
  1775.64        2500.00        99.1326       0.685794       0.181595                 NaN            NaN            NaN            NaN
  1772.44        2500.00        99.1206       0.685887       0.193472                 NaN            NaN            NaN            NaN
  1769.23        2500.00        98.5510       0.686177       0.205477       0.557340                 NaN            NaN            NaN
  1766.03        2500.00        97.7797       0.686537       0.216978        1.31675                 NaN            NaN            NaN
  1762.82        2500.00        97.0077       0.686896       0.228490        2.07693                 NaN            NaN            NaN
  1759.62        2500.00        96.2349       0.687252       0.240013        2.83787                 NaN            NaN            NaN
  1756.41        2500.00        95.4613       0.687606       0.251548        3.59956                 NaN            NaN            NaN
  1753.21        2500.00        94.6870       0.687959       0.263094        4.36200                 NaN            NaN            NaN
  1750.00        2500.00        93.9119       0.688309       0.274651        5.12517                 NaN            NaN            NaN
  1746.79        2500.00        93.1360       0.688658       0.286218        5.88908                 NaN            NaN            NaN
  1743.59        2500.00        92.3595       0.689004       0.297797        6.65372                 NaN            NaN            NaN
  1740.38        2500.00        91.5805       0.689349       0.308461        7.42169                 NaN            NaN            NaN
  1737.18        2500.00        90.8008       0.689692       0.319134        8.19038                 NaN            NaN            NaN
  1733.97        2500.00        90.0204       0.690033       0.329818        8.95978                 NaN            NaN            NaN
  1730.77        2500.00        89.2392       0.690372       0.340510        9.72988                 NaN            NaN            NaN
  1727.56        2500.00        88.4574       0.690709       0.351212        10.5007                 NaN            NaN            NaN
  1724.36        2500.00        87.6749       0.691043       0.361923        11.2722                 NaN            NaN            NaN
  1721.15        2500.00        86.8917       0.691375       0.372643        12.0443                 NaN            NaN            NaN
  1717.95        2500.00        86.1078       0.691704       0.383372        12.8171                 NaN            NaN            NaN
  1714.74        2500.00        85.3427       0.692024       0.393249        13.5720                 NaN            NaN            NaN
  1711.54        2500.00        84.5771       0.692341       0.403134        14.3275                 NaN            NaN            NaN
  1708.33        2500.00        83.8108       0.692656       0.413027        15.0836                 NaN            NaN            NaN
  1705.13        2500.00        83.0439       0.692969       0.422927        15.8403                 NaN            NaN            NaN
  1701.92        2500.00        82.2763       0.693279       0.432834        16.5975                 NaN            NaN            NaN
  1698.72        2500.00        81.5083       0.693587       0.442748        17.3554                 NaN            NaN            NaN
  1695.51        2500.00        80.7396       0.693892       0.452670        18.1139                 NaN            NaN            NaN
  1692.31        2500.00        79.9703       0.694194       0.462599        18.8729                 NaN            NaN            NaN
  1689.10        2500.00        79.2305       0.694483       0.471861        19.6032                 NaN            NaN            NaN
  1685.90        2500.00        78.4901       0.694770       0.481130        20.3340                 NaN            NaN            NaN
  1682.69        2500.00        77.7492       0.695054       0.490404        21.0653                 NaN            NaN            NaN
  1679.49        2500.00        77.0079       0.695336       0.499684        21.7971                 NaN            NaN            NaN
  1676.28        2500.00        76.2850       0.695608       0.508704        22.5107                 NaN            NaN            NaN
  1673.08        2500.00        75.5616       0.695878       0.517728        23.2248                 NaN            NaN            NaN
  1669.87        2500.00        74.1338       0.696823       0.525843        23.7255       0.918067                 NaN            NaN
  1666.67        2500.00        72.0075       0.698450       0.532906        23.9963        2.76485                 NaN            NaN
  1663.46        2500.00        70.2530       0.699816       0.537169        24.2044        4.30561                 NaN            NaN
  1660.26        2500.00        68.4918       0.701185       0.541448        24.4132        5.85233                 NaN            NaN
  1657.05        2500.00        66.7239       0.702558       0.545742        24.6228        7.40505                 NaN            NaN
  1653.85        2500.00        64.9491       0.703934       0.550051        24.8331        8.96378                 NaN            NaN
  1650.64        2500.00        63.1676       0.705313       0.554375        25.0442        10.5285                 NaN            NaN
  1647.44        2500.00        61.3792       0.706696       0.558715        25.2560        12.0994                 NaN            NaN
  1644.23        2500.00        59.5840       0.708082       0.563070        25.4686        13.6763                 NaN            NaN
  1641.03        2500.00        57.7819       0.709471       0.567441        25.6819        15.2593                 NaN            NaN
  1637.82        2500.00        56.4401       0.710543       0.567644        25.8167        16.4650                 NaN            NaN
  1634.62        2500.00        55.0944       0.711616       0.567847        25.9519        17.6742                 NaN            NaN
  1631.41        2500.00        53.7448       0.712691       0.568049        26.0874        18.8871                 NaN            NaN
  1628.21        2500.00        52.3912       0.713768       0.568250        26.2233        20.1035                 NaN            NaN
  1625.00        2500.00        51.0336       0.714847       0.568451        26.3596        21.3235                 NaN            NaN
  1621.79        2500.00        49.6721       0.715928       0.568651        26.4962        22.5471                 NaN            NaN
  1618.59        2500.00        48.3067       0.717010       0.568851        26.6331        23.7744                 NaN            NaN
  1615.38        2500.00        46.9372       0.718094       0.569051        26.7704        25.0052                 NaN            NaN
  1612.18        2500.00        45.8195       0.719009       0.565267        26.8662        26.0300                 NaN            NaN
  1608.97        2500.00        44.6991       0.719925       0.561473        26.9622        27.0573                 NaN            NaN
  1605.77        2500.00        43.5760       0.720842       0.557669        27.0584        28.0871                 NaN            NaN
  1602.56        2500.00        42.4502       0.721761       0.553854        27.1548        29.1194                 NaN            NaN
  1599.36        2500.00        41.3216       0.722681       0.550028        27.2514        30.1543                 NaN            NaN
  1596.15        2500.00        40.1903       0.723602       0.546192        27.3482        31.1917                 NaN            NaN
  1592.95        2500.00        39.0562       0.724524       0.542345        27.4452        32.2317                 NaN            NaN
  1589.74        2500.00        37.9194       0.725447       0.538488        27.5424        33.2743                 NaN            NaN
  1586.54        2500.00        36.8806       0.726309       0.530810        27.6266        34.2357                 NaN            NaN
  1583.33        2500.00        35.8394       0.727172       0.523114        27.7109        35.1994                 NaN            NaN
  1580.13        2500.00        34.7959       0.728036       0.515399        27.7955        36.1652                 NaN            NaN
  1576.92        2500.00        33.7501       0.728901       0.507665        27.8802        37.1332                 NaN            NaN
  1573.72        2500.00        32.7245       0.729755       0.497318        27.9647        38.0837                 NaN            NaN
  1570.51        2500.00        31.6966       0.730611       0.486945        28.0495        39.0363                 NaN            NaN
  1567.31        2500.00        30.5135       0.731594       0.485031        28.1326        38.9691        1.16821                 NaN
  1564.10        2500.00        29.2288       0.732662       0.484659        28.2217        38.4270        2.90518                 NaN
  1560.90        2500.00        27.8945       0.733800       0.486277        28.3218        37.8793        4.68440                 NaN
  1557.69        2500.00        26.5562       0.734940       0.487901        28.4221        37.3297        6.46911                 NaN
  1554.49        2500.00        25.2139       0.736082       0.489531        28.5228        36.7784        8.25932                 NaN
  1551.28        2500.00        23.8677       0.737226       0.491167        28.6236        36.2252        10.0550                 NaN
  1548.08        2500.00        22.5417       0.738380       0.488075        28.7353        35.9425        11.5540                 NaN
  1544.87        2500.00        21.2043       0.739559       0.478274        28.8619        36.1078        12.2279       0.380230     
  1541.67        2500.00        21.2032       0.739580       0.478292        28.8623        36.1083        12.2281       0.380235     
  1538.46        2500.00        18.5627       0.741937       0.435175        29.1548        37.8174        10.0430        3.24503     
