|6.6.6
Archiving\03_Data\frac/QFM_m4.75/WD94/WD94_6.tab                          
           1
T(K)    
  0.000000000000000E+000
  0.000000000000000E+000
           0
           3
T(K)           P(bar)         rho,kg/m3     
  2000.00        2500.00        6829.32     
  1997.49        2500.00        6833.76     
  1994.99        2500.00        6838.14     
  1992.48        2500.00        6843.22     
  1989.97        2500.00        6846.73     
  1987.47        2500.00        6850.94     
  1984.96        2500.00        6855.11     
  1982.46        2500.00        6859.22     
  1979.95        2500.00        6806.31     
  1977.44        2500.00        6714.29     
  1974.94        2500.00        6627.87     
  1972.43        2500.00        6549.31     
  1969.92        2500.00        6475.36     
  1967.42        2500.00        6406.09     
  1964.91        2500.00        6241.85     
  1962.41        2500.00        6232.47     
  1959.90        2500.00        6223.22     
  1957.39        2500.00        6169.44     
  1954.89        2500.00        6118.63     
  1952.38        2500.00        6070.47     
  1949.87        2500.00        6064.83     
  1947.37        2500.00        6067.22     
  1944.86        2500.00        6073.79     
  1942.36        2500.00        6080.28     
  1939.85        2500.00        6086.72     
  1937.34        2500.00        6093.09     
  1934.84        2500.00        6099.40     
  1932.33        2500.00        6105.65     
  1929.82        2500.00        6111.84     
  1927.32        2500.00        6133.42     
  1924.81        2500.00        6124.04     
  1922.31        2500.00        6138.20     
  1919.80        2500.00        6136.01     
  1917.29        2500.00        6141.92     
  1914.79        2500.00        6147.76     
  1912.28        2500.00        6144.27     
  1909.77        2500.00        6159.30     
  1907.27        2500.00        6163.97     
  1904.76        2500.00        6170.36     
  1902.26        2500.00        6176.22     
  1899.75        2500.00        6126.05     
  1897.24        2500.00        3154.94     
  1894.74        2500.00        3158.23     
  1892.23        2500.00        3158.75     
  1889.72        2500.00        3159.83     
  1887.22        2500.00        3161.02     
  1884.71        2500.00        3162.46     
  1882.21        2500.00        3164.28     
  1879.70        2500.00        3165.99     
  1877.19        2500.00        3166.75     
  1874.69        2500.00        3168.94     
  1872.18        2500.00        3170.23     
  1869.67        2500.00        3171.94     
  1867.17        2500.00        3174.07     
  1864.66        2500.00        3577.09     
  1862.16        2500.00        3175.90     
  1859.65        2500.00        3177.78     
  1857.14        2500.00        3179.28     
  1854.64        2500.00        3180.89     
  1852.13        2500.00        3182.01     
  1849.62        2500.00        3183.87     
  1847.12        2500.00        3185.37     
  1844.61        2500.00        3187.02     
  1842.11        2500.00        3188.81     
  1839.60        2500.00        3190.18     
  1837.09        2500.00        3208.60     
  1834.59        2500.00        3216.42     
  1832.08        2500.00        3217.97     
  1829.57        2500.00        3219.87     
  1827.07        2500.00        3221.19     
  1824.56        2500.00        3223.06     
  1822.06        2500.00        3223.99     
  1819.55        2500.00        3225.87     
  1817.04        2500.00        3227.52     
  1814.54        2500.00        3228.71     
  1812.03        2500.00        3230.14     
  1809.52        2500.00        3230.99     
  1807.02        2500.00        3233.35     
  1804.51        2500.00        3235.03     
  1802.01        2500.00        3235.57     
  1799.50        2500.00        3238.00     
  1796.99        2500.00        3235.22     
  1794.49        2500.00        3240.68     
  1791.98        2500.00        3242.68     
  1789.47        2500.00        3244.42     
  1786.97        2500.00        3245.09     
  1784.46        2500.00        2904.81     
  1781.95        2500.00        3248.91     
  1779.45        2500.00        3249.45     
  1776.94        2500.00        3251.74     
  1774.44        2500.00        3254.10     
  1771.93        2500.00        3254.24     
  1769.42        2500.00        3256.65     
  1766.92        2500.00        3257.46     
  1764.41        2500.00        3259.59     
  1761.90        2500.00        3260.75     
  1759.40        2500.00        3261.97     
  1756.89        2500.00        3263.63     
  1754.39        2500.00        3264.59     
  1751.88        2500.00        3266.99     
  1749.37        2500.00        3268.07     
  1746.87        2500.00        3269.14     
  1744.36        2500.00        3270.94     
  1741.85        2500.00        3272.69     
  1739.35        2500.00        3273.03     
  1736.84        2500.00        3275.43     
  1734.34        2500.00        3277.14     
  1731.83        2500.00        3277.86     
  1729.32        2500.00        3279.90     
  1726.82        2500.00        3282.10     
  1724.31        2500.00        3282.89     
  1721.80        2500.00        3283.84     
  1719.30        2500.00        3285.02     
  1716.79        2500.00        3286.65     
  1714.29        2500.00        3288.15     
  1711.78        2500.00        3289.11     
  1709.27        2500.00        3290.47     
  1706.77        2500.00        3292.14     
  1704.26        2500.00        3293.72     
  1701.75        2500.00        3294.39     
  1699.25        2500.00        3296.26     
  1696.74        2500.00        3297.45     
  1694.24        2500.00        3298.89     
  1691.73        2500.00        3300.44     
  1689.22        2500.00        3301.71     
  1686.72        2500.00        3303.01     
  1684.21        2500.00        3304.37     
  1681.70        2500.00        3305.31     
  1679.20        2500.00        3306.31     
  1676.69        2500.00        3308.69     
  1674.19        2500.00        3308.72     
  1671.68        2500.00        3310.46     
  1669.17        2500.00        3312.47     
  1666.67        2500.00        3312.73     
  1664.16        2500.00        3234.05     
  1661.65        2500.00        3225.64     
  1659.15        2500.00        3226.18     
  1656.64        2500.00        3227.88     
  1654.14        2500.00        3228.59     
  1651.63        2500.00        3229.08     
  1649.12        2500.00        3229.66     
  1646.62        2500.00        3231.37     
  1644.11        2500.00        3232.48     
  1641.60        2500.00        3233.39     
  1639.10        2500.00        3233.68     
  1636.59        2500.00        3234.67     
  1634.09        2500.00        3235.67     
  1631.58        2500.00        3236.97     
  1629.07        2500.00        3236.35     
  1626.57        2500.00        3238.47     
  1624.06        2500.00        3238.60     
  1621.55        2500.00        3239.68     
  1619.05        2500.00        3240.67     
  1616.54        2500.00        3241.37     
  1614.04        2500.00        3242.92     
  1611.53        2500.00        3243.41     
  1609.02        2500.00        3244.03     
  1606.52        2500.00        3244.87     
  1604.01        2500.00        3245.77     
  1601.50        2500.00        3246.57     
  1599.00        2500.00        3247.91     
  1596.49        2500.00        3248.03     
  1593.98        2500.00        3249.17     
  1591.48        2500.00        3250.28     
  1588.97        2500.00        3251.73     
  1586.47        2500.00        3251.66     
  1583.96        2500.00        3251.84     
  1581.45        2500.00        3250.50     
  1578.95        2500.00        3253.77     
  1576.44        2500.00        3254.61     
  1573.93        2500.00        3255.94     
  1571.43        2500.00        3255.47     
  1568.92        2500.00        3256.73     
  1566.42        2500.00        3257.92     
  1563.91        2500.00        3258.25     
  1561.40        2500.00        3258.56     
  1558.90        2500.00        3260.12     
  1556.39        2500.00        3261.14     
  1553.88        2500.00        3261.36     
  1551.38        2500.00        3262.18     
  1548.87        2500.00        3262.85     
  1546.37        2500.00        3263.37     
  1543.86        2500.00        3263.62     
  1541.35        2500.00        3266.22     
  1538.85        2500.00        3266.01     
  1536.34        2500.00        3266.20     
  1533.83        2500.00        3267.36     
  1531.33        2500.00        3267.86     
  1528.82        2500.00        3269.01     
  1526.32        2500.00        3269.20     
  1523.81        2500.00        3269.69     
  1521.30        2500.00        3262.79     
  1518.80        2500.00        3250.03     
  1516.29        2500.00        3251.40     
  1513.78        2500.00        3252.74     
  1511.28        2500.00        3257.78     
  1508.77        2500.00        3255.07     
  1506.27        2500.00        3256.36     
  1503.76        2500.00        3257.86     
  1501.25        2500.00        3260.15     
  1498.75        2500.00        3260.85     
  1496.24        2500.00        3261.78     
  1493.73        2500.00        3263.45     
  1491.23        2500.00        3264.54     
  1488.72        2500.00        3265.85     
  1486.22        2500.00        3267.21     
  1483.71        2500.00        3268.94     
  1481.20        2500.00        3270.03     
  1478.70        2500.00        3271.45     
  1476.19        2500.00        3266.39     
  1473.68        2500.00        3258.15     
  1471.18        2500.00        3260.42     
  1468.67        2500.00        3261.99     
  1466.17        2500.00        3263.69     
  1463.66        2500.00        3266.11     
  1461.15        2500.00        3267.57     
  1458.65        2500.00        3269.10     
  1456.14        2500.00        3271.08     
  1453.63        2500.00        3272.50     
  1451.13        2500.00        3274.46     
  1448.62        2500.00        3276.46     
  1446.12        2500.00        3278.47     
  1443.61        2500.00        3279.74     
  1441.10        2500.00        3281.84     
  1438.60        2500.00        3283.93     
  1436.09        2500.00        3117.42     
  1433.58        2500.00        3101.37     
  1431.08        2500.00        3103.52     
  1428.57        2500.00        3107.44     
  1426.07        2500.00        3114.56     
  1423.56        2500.00        3116.99     
  1421.05        2500.00        3119.50     
  1418.55        2500.00        3121.83     
  1416.04        2500.00        3124.62     
  1413.53        2500.00        3126.97     
  1411.03        2500.00        3129.48     
  1408.52        2500.00        3131.93     
  1406.02        2500.00        3134.56     
  1403.51        2500.00        3137.08     
  1401.00        2500.00        3139.47     
  1398.50        2500.00        3142.08     
  1395.99        2500.00        3144.77     
  1393.48        2500.00        3147.29     
  1390.98        2500.00        3149.52     
  1388.47        2500.00        3152.35     
  1385.96        2500.00        3154.95     
  1383.46        2500.00        3157.61     
  1380.95        2500.00        3159.96     
  1378.45        2500.00        3162.50     
  1375.94        2500.00        3164.99     
  1373.43        2500.00        3167.73     
  1370.93        2500.00        3170.16     
  1368.42        2500.00        3172.62     
  1365.91        2500.00        3175.06     
  1363.41        2500.00        3176.96     
  1360.90        2500.00        3180.24     
  1358.40        2500.00        3182.49     
  1355.89        2500.00        3184.98     
  1353.38        2500.00        3187.27     
  1350.88        2500.00        3189.68     
  1348.37        2500.00        3191.96     
  1345.86        2500.00        3194.34     
  1343.36        2500.00        3196.25     
  1340.85        2500.00        3198.66     
  1338.35        2500.00        3200.98     
  1335.84        2500.00        3203.01     
  1333.33        2500.00        3205.14     
  1330.83        2500.00        3207.07     
  1328.32        2500.00        3209.02     
  1325.81        2500.00        3210.92     
  1323.31        2500.00        3212.71     
  1320.80        2500.00        3214.41     
  1318.30        2500.00        3215.77     
  1315.79        2500.00        2846.47     
  1313.28        2500.00        2790.79     
  1310.78        2500.00        2797.93     
  1308.27        2500.00        2796.87     
  1305.76        2500.00        2795.58     
  1303.26        2500.00        2794.06     
  1300.75        2500.00        2792.20     
  1298.25        2500.00        2790.02     
  1295.74        2500.00        2784.38     
  1293.23        2500.00        2786.63     
  1290.73        2500.00        2783.89     
  1288.22        2500.00        2771.15     
  1285.71        2500.00        2771.65     
  1283.21        2500.00        2771.89     
  1280.70        2500.00        2772.27     
  1278.20        2500.00        2772.48     
  1275.69        2500.00        2774.75     
  1273.18        2500.00        2775.14     
  1270.68        2500.00        2775.38     
  1268.17        2500.00        2774.14     
  1265.66        2500.00        2774.65     
  1263.16        2500.00        2776.07     
  1260.65        2500.00        2776.40     
  1258.15        2500.00        2774.92     
  1255.64        2500.00        2776.46     
  1253.13        2500.00        2777.33     
  1250.63        2500.00        2777.79     
  1248.12        2500.00        2774.99     
  1245.61        2500.00        2774.88     
  1243.11        2500.00        2775.06     
  1240.60        2500.00        2775.68     
  1238.10        2500.00        2775.27     
  1235.59        2500.00        2775.30     
  1233.08        2500.00        2777.30     
  1230.58        2500.00        2774.36     
  1228.07        2500.00        2776.84     
  1225.56        2500.00        2777.05     
  1223.06        2500.00        2777.53     
  1220.55        2500.00        2777.93     
  1218.05        2500.00        2775.72     
  1215.54        2500.00        2777.73     
  1213.03        2500.00        2778.42     
  1210.53        2500.00        2778.80     
  1208.02        2500.00        2778.72     
  1205.51        2500.00        2778.62     
  1203.01        2500.00        2777.33     
  1200.50        2500.00        2778.93     
  1197.99        2500.00        2779.77     
  1195.49        2500.00        2779.99     
  1192.98        2500.00        2779.18     
  1190.48        2500.00        2777.86     
  1187.97        2500.00        2780.45     
  1185.46        2500.00        2780.67     
  1182.96        2500.00        2779.69     
  1180.45        2500.00        2778.70     
  1177.94        2500.00        2781.44     
  1175.44        2500.00        2779.38     
  1172.93        2500.00        2780.32     
  1170.43        2500.00        2780.90     
  1167.92        2500.00        2779.99     
  1165.41        2500.00        2780.20     
  1162.91        2500.00        2782.16     
  1160.40        2500.00        2782.15     
  1157.89        2500.00        2780.82     
  1155.39        2500.00        2781.25     
  1152.88        2500.00        2783.02     
  1150.38        2500.00        2783.43     
  1147.87        2500.00        2783.69     
  1145.36        2500.00        2782.40     
  1142.86        2500.00        2782.70     
  1140.35        2500.00        2783.94     
  1137.84        2500.00        2784.62     
  1135.34        2500.00        2782.80     
  1132.83        2500.00        2783.43     
  1130.33        2500.00        2783.18     
  1127.82        2500.00        2783.44     
  1125.31        2500.00        2783.66     
  1122.81        2500.00        2785.67     
  1120.30        2500.00        2785.51     
  1117.79        2500.00        2786.11     
  1115.29        2500.00        2786.33     
  1112.78        2500.00        2786.42     
  1110.28        2500.00        2786.59     
  1107.77        2500.00        2786.90     
  1105.26        2500.00        2787.05     
  1102.76        2500.00        2785.01     
  1100.25        2500.00        2785.66     
  1097.74        2500.00        2787.67     
  1095.24        2500.00        2787.88     
  1092.73        2500.00        2788.02     
  1090.23        2500.00        2786.19     
  1087.72        2500.00        2788.44     
  1085.21        2500.00        2788.87     
  1082.71        2500.00        2789.00     
  1080.20        2500.00        2789.31     
  1077.69        2500.00        2789.31     
  1075.19        2500.00        2789.54     
  1072.68        2500.00        2789.80     
  1070.18        2500.00        2790.18     
  1067.67        2500.00        2790.39     
  1065.16        2500.00        2790.45     
  1062.66        2500.00        2787.45     
  1060.15        2500.00        2790.79     
  1057.64        2500.00        2791.12     
  1055.14        2500.00        2791.17     
  1052.63        2500.00        2791.33     
  1050.13        2500.00        2791.62     
  1047.62        2500.00        2791.53     
  1045.11        2500.00        2791.81     
  1042.61        2500.00        2792.59     
  1040.10        2500.00        2792.53     
  1037.59        2500.00        2792.49     
  1035.09        2500.00        2793.26     
  1032.58        2500.00        2793.14     
  1030.08        2500.00        2793.29     
  1027.57        2500.00        2793.40     
  1025.06        2500.00        2793.89     
  1022.56        2500.00        2793.40     
  1020.05        2500.00        2792.09     
  1017.54        2500.00        2794.93     
  1015.04        2500.00        2795.15     
  1012.53        2500.00        2792.58     
  1010.03        2500.00        2795.27     
  1007.52        2500.00        2793.68     
  1005.01        2500.00        2796.15     
  1002.51        2500.00        2796.11     
  1000.00        2500.00        2793.81     
