|6.6.6
Archiving\03_Data\eqfracLP/QFM_m4.75/TAY13/TAY13_6.tab                    
           1
T(K)    
  0.000000000000000E+000
  0.000000000000000E+000
           0
           3
T(K)           P(bar)         rho,kg/m3     
  1567.31        500.000        3347.51     
  1565.89        500.000        3245.26     
  1564.47        500.000        3246.83     
  1563.04        500.000        3248.98     
  1561.62        500.000        3252.05     
  1560.20        500.000        3251.78     
  1558.78        500.000        3252.15     
  1557.36        500.000        3253.24     
  1555.94        500.000        3252.24     
  1554.51        500.000        3253.52     
  1553.09        500.000        3254.29     
  1551.67        500.000        3253.72     
  1550.25        500.000        3253.33     
  1548.83        500.000        3255.10     
  1547.40        500.000        3255.60     
  1545.98        500.000        3256.48     
  1544.56        500.000        3256.45     
  1543.14        500.000        3257.14     
  1541.72        500.000        3257.09     
  1540.30        500.000        3258.00     
  1538.87        500.000        3257.39     
  1537.45        500.000        3257.97     
  1536.03        500.000        3259.13     
  1534.61        500.000        3258.94     
  1533.19        500.000        3259.76     
  1531.76        500.000        3259.82     
  1530.34        500.000        3261.69     
  1528.92        500.000        3257.58     
  1527.50        500.000        3260.46     
  1526.08        500.000        3261.69     
  1524.66        500.000        3261.91     
  1523.23        500.000        3283.84     
  1521.81        500.000        3260.45     
  1520.39        500.000        3259.61     
  1518.97        500.000        3260.97     
  1517.55        500.000        3260.28     
  1516.12        500.000        3273.94     
  1514.70        500.000        3262.51     
  1513.28        500.000        3262.54     
  1511.86        500.000        3262.81     
  1510.44        500.000        3263.44     
  1509.01        500.000        3263.97     
  1507.59        500.000        3263.84     
  1506.17        500.000        3265.03     
  1504.75        500.000        3264.63     
  1503.33        500.000        3265.22     
  1501.91        500.000        3271.68     
  1500.48        500.000        3267.18     
  1499.06        500.000        3277.02     
  1497.64        500.000        3269.07     
  1496.22        500.000        3268.04     
  1494.80        500.000        3268.46     
  1493.37        500.000        3269.77     
  1491.95        500.000        3269.74     
  1490.53        500.000        3270.62     
  1489.11        500.000        3271.75     
  1487.69        500.000        3276.77     
  1486.27        500.000        3271.98     
  1484.84        500.000        3272.41     
  1483.42        500.000        3272.54     
  1482.00        500.000        3273.21     
  1480.58        500.000        3273.85     
  1479.16        500.000        3267.85     
  1477.73        500.000        3274.61     
  1476.31        500.000        3262.19     
  1474.89        500.000        3262.69     
  1473.47        500.000        3262.54     
  1472.05        500.000        3263.35     
  1470.63        500.000        3264.58     
  1469.20        500.000        3264.10     
  1467.78        500.000        3265.13     
  1466.36        500.000        3267.02     
  1464.94        500.000        3267.09     
  1463.52        500.000        3270.16     
  1462.09        500.000        3267.68     
  1460.67        500.000        3269.22     
  1459.25        500.000        3271.50     
  1457.83        500.000        3270.69     
  1456.41        500.000        3271.50     
  1454.99        500.000        3272.72     
  1453.56        500.000        3273.68     
  1452.14        500.000        3274.23     
  1450.72        500.000        3275.11     
  1449.30        500.000        3275.71     
  1447.88        500.000        3276.16     
  1446.45        500.000        3277.22     
  1445.03        500.000        3278.74     
  1443.61        500.000        3278.83     
  1442.19        500.000        3263.15     
  1440.77        500.000        3261.06     
  1439.35        500.000        3262.86     
  1437.92        500.000        3263.05     
  1436.50        500.000        3264.19     
  1435.08        500.000        3264.86     
  1433.66        500.000        3265.81     
  1432.24        500.000        3267.05     
  1430.81        500.000        3268.29     
  1429.39        500.000        3268.95     
  1427.97        500.000        3270.23     
  1426.55        500.000        3271.22     
  1425.13        500.000        3272.46     
  1423.71        500.000        3273.86     
  1422.28        500.000        3274.27     
  1420.86        500.000        3275.29     
  1419.44        500.000        3099.20     
  1418.02        500.000        3095.21     
  1416.60        500.000        3096.54     
  1415.17        500.000        3097.44     
  1413.75        500.000        3098.70     
  1412.33        500.000        3099.82     
  1410.91        500.000        3101.15     
  1409.49        500.000        3102.22     
  1408.07        500.000        3103.33     
  1406.64        500.000        3104.39     
  1405.22        500.000        3105.70     
  1403.80        500.000        3106.83     
  1402.38        500.000        3108.00     
  1400.96        500.000        3109.09     
  1399.53        500.000        3110.38     
  1398.11        500.000        3111.45     
  1396.69        500.000        3112.75     
  1395.27        500.000        3113.94     
  1393.85        500.000        3114.98     
  1392.42        500.000        3116.13     
  1391.00        500.000        3117.38     
  1389.58        500.000        3118.40     
  1388.16        500.000        3119.42     
  1386.74        500.000        3120.77     
  1385.32        500.000        3121.83     
  1383.89        500.000        3123.04     
  1382.47        500.000        3124.16     
  1381.05        500.000        3125.52     
  1379.63        500.000        3126.57     
  1378.21        500.000        3127.72     
  1376.78        500.000        3128.81     
  1375.36        500.000        3130.00     
  1373.94        500.000        3131.19     
  1372.52        500.000        3132.60     
  1371.10        500.000        3133.75     
  1369.68        500.000        3134.77     
  1368.25        500.000        3135.83     
  1366.83        500.000        3137.22     
  1365.41        500.000        3138.22     
  1363.99        500.000        3139.57     
  1362.57        500.000        3140.84     
  1361.14        500.000        3142.08     
  1359.72        500.000        3143.30     
  1358.30        500.000        3144.13     
  1356.88        500.000        3145.50     
  1355.46        500.000        3146.78     
  1354.04        500.000        3147.95     
  1352.61        500.000        3149.16     
  1351.19        500.000        3150.29     
  1349.77        500.000        3151.34     
  1348.35        500.000        3152.77     
  1346.93        500.000        3153.97     
  1345.50        500.000        3154.92     
  1344.08        500.000        3156.31     
  1342.66        500.000        3157.60     
  1341.24        500.000        3158.79     
  1339.82        500.000        3163.39     
  1338.40        500.000        3189.75     
  1336.97        500.000        3195.07     
  1335.55        500.000        3195.01     
  1334.13        500.000        3194.93     
  1332.71        500.000        3194.88     
  1331.29        500.000        3193.59     
  1329.86        500.000        3194.18     
  1328.44        500.000        3198.60     
  1327.02        500.000        3192.36     
  1325.60        500.000        3197.65     
  1324.18        500.000        3199.12     
  1322.76        500.000        3200.31     
  1321.33        500.000        3202.06     
  1319.91        500.000        3203.42     
  1318.49        500.000        3204.70     
  1317.07        500.000        3206.16     
  1315.65        500.000        3207.47     
  1314.22        500.000        3208.95     
  1312.80        500.000        3210.19     
  1311.38        500.000        3210.92     
  1309.96        500.000        3212.93     
  1308.54        500.000        3214.24     
  1307.12        500.000        3215.14     
  1305.69        500.000        3216.46     
  1304.27        500.000        3217.73     
  1302.85        500.000        3218.72     
  1301.43        500.000        3220.17     
  1300.01        500.000        3221.20     
  1298.58        500.000        3222.32     
  1297.16        500.000        3223.42     
  1295.74        500.000        3224.24     
  1294.32        500.000        3225.47     
  1292.90        500.000        3226.37     
  1291.48        500.000        3227.44     
  1290.05        500.000        2776.39     
  1288.63        500.000        2765.58     
  1287.21        500.000        2767.67     
  1285.79        500.000        2769.93     
  1284.37        500.000        2778.57     
  1282.94        500.000        2779.60     
  1281.52        500.000        2780.11     
  1280.10        500.000        2780.60     
  1278.68        500.000        2781.03     
  1277.26        500.000        2781.43     
  1275.83        500.000        2781.90     
  1274.41        500.000        2782.31     
  1272.99        500.000        2783.14     
  1271.57        500.000        2784.54     
  1270.15        500.000        2785.75     
  1268.73        500.000        2787.07     
  1267.30        500.000        2787.83     
  1265.88        500.000        2784.20     
  1264.46        500.000        2787.42     
  1263.04        500.000        2800.42     
  1261.62        500.000        2792.39     
  1260.19        500.000        2793.47     
  1258.77        500.000        2794.58     
  1257.35        500.000        2795.24     
  1255.93        500.000        2795.95     
  1254.51        500.000        2796.75     
  1253.09        500.000        2797.12     
  1251.66        500.000        2799.24     
  1250.24        500.000        2799.70     
  1248.82        500.000        2800.00     
  1247.40        500.000        2801.49     
  1245.98        500.000        2801.83     
  1244.55        500.000        2802.75     
  1243.13        500.000        2803.62     
  1241.71        500.000        2804.28     
  1240.29        500.000        2804.43     
  1238.87        500.000        2805.94     
  1237.45        500.000        2806.24     
  1236.02        500.000        2807.33     
  1234.60        500.000        2807.96     
  1233.18        500.000        2808.87     
  1231.76        500.000        2810.09     
  1230.34        500.000        2809.83     
  1228.91        500.000        2810.36     
  1227.49        500.000        2810.98     
  1226.07        500.000        2811.44     
  1224.65        500.000        2813.27     
  1223.23        500.000        2813.71     
  1221.81        500.000        2813.93     
  1220.38        500.000        2814.51     
  1218.96        500.000        2816.22     
  1217.54        500.000        2819.04     
  1216.12        500.000        2821.44     
  1214.70        500.000        2820.74     
  1213.27        500.000        2820.57     
  1211.85        500.000        2820.38     
  1210.43        500.000        2820.16     
  1209.01        500.000        2754.59     
  1207.59        500.000        2648.23     
  1206.17        500.000        2701.12     
  1204.74        500.000        2693.99     
  1203.32        500.000        2691.14     
  1201.90        500.000        2690.74     
  1200.48        500.000        2662.48     
  1199.06        500.000        2655.21     
  1197.63        500.000        2665.41     
  1196.21        500.000        2651.87     
  1194.79        500.000        2659.91     
  1193.37        500.000        2644.26     
  1191.95        500.000        2640.61     
  1190.53        500.000        2627.94     
  1189.10        500.000        2628.03     
  1187.68        500.000        2628.07     
  1186.26        500.000        2628.14     
  1184.84        500.000        2628.18     
  1183.42        500.000        2628.27     
  1181.99        500.000        2628.34     
  1180.57        500.000        2628.40     
  1179.15        500.000        2628.46     
  1177.73        500.000        2628.53     
  1176.31        500.000        2628.59     
  1174.89        500.000        2628.65     
  1173.46        500.000        2628.71     
  1172.04        500.000        2628.77     
  1170.62        500.000        2628.83     
  1169.20        500.000        2628.89     
  1167.78        500.000        2628.94     
  1166.35        500.000        2629.00     
  1164.93        500.000        2629.08     
  1163.51        500.000        2629.13     
  1162.09        500.000        2629.20     
  1160.67        500.000        2629.26     
  1159.24        500.000        2629.32     
  1157.82        500.000        2629.43     
  1156.40        500.000        2629.48     
  1154.98        500.000        2629.52     
  1153.56        500.000        2629.59     
  1152.14        500.000        2629.65     
  1150.71        500.000        2629.71     
  1149.29        500.000        2629.77     
  1147.87        500.000        2629.82     
  1146.45        500.000        2629.90     
  1145.03        500.000        2629.94     
  1143.60        500.000        2630.02     
  1142.18        500.000        2630.09     
  1140.76        500.000        2630.12     
  1139.34        500.000        2630.21     
  1137.92        500.000        2630.27     
  1136.50        500.000        2630.34     
  1135.07        500.000        2630.37     
  1133.65        500.000        2630.43     
  1132.23        500.000        2630.49     
  1130.81        500.000        2630.55     
  1129.39        500.000        2630.63     
  1127.96        500.000        2630.69     
  1126.54        500.000        2630.73     
  1125.12        500.000        2630.81     
  1123.70        500.000        2630.89     
  1122.28        500.000        2630.96     
  1120.86        500.000        2631.02     
  1119.43        500.000        2631.08     
  1118.01        500.000        2631.10     
  1116.59        500.000        2631.20     
  1115.17        500.000        2631.27     
  1113.75        500.000        2631.31     
  1112.32        500.000        2631.36     
  1110.90        500.000        2631.40     
  1109.48        500.000        2631.47     
  1108.06        500.000        2631.53     
  1106.64        500.000        2631.64     
  1105.22        500.000        2631.66     
  1103.79        500.000        2631.70     
  1102.37        500.000        2631.78     
  1100.95        500.000        2631.84     
  1099.53        500.000        2631.90     
  1098.11        500.000        2631.96     
  1096.68        500.000        2632.04     
  1095.26        500.000        2632.11     
  1093.84        500.000        2632.17     
  1092.42        500.000        2632.23     
  1091.00        500.000        2632.29     
  1089.58        500.000        2632.35     
  1088.15        500.000        2632.42     
  1086.73        500.000        2632.43     
  1085.31        500.000        2632.54     
  1083.89        500.000        2632.55     
  1082.47        500.000        2632.62     
  1081.04        500.000        2632.67     
  1079.62        500.000        2632.74     
  1078.20        500.000        2632.79     
  1076.78        500.000        2632.84     
  1075.36        500.000        2632.90     
  1073.94        500.000        2632.99     
  1072.51        500.000        2633.06     
  1071.09        500.000        2633.11     
  1069.67        500.000        2633.18     
  1068.25        500.000        2633.24     
  1066.83        500.000        2633.28     
  1065.40        500.000        2633.37     
  1063.98        500.000        2633.42     
  1062.56        500.000        2633.46     
  1061.14        500.000        2633.53     
  1059.72        500.000        2633.59     
  1058.30        500.000        2633.64     
  1056.87        500.000        2633.70     
  1055.45        500.000        2633.77     
  1054.03        500.000        2633.83     
  1052.61        500.000        2633.89     
  1051.19        500.000        2633.95     
  1049.76        500.000        2634.01     
  1048.34        500.000        2634.07     
  1046.92        500.000        2634.12     
  1045.50        500.000        2631.67     
  1044.08        500.000        2634.24     
  1042.65        500.000        2634.30     
  1041.23        500.000        2634.38     
  1039.81        500.000        2634.43     
  1038.39        500.000        2634.49     
  1036.97        500.000        2634.55     
  1035.55        500.000        2633.23     
  1034.12        500.000        2633.28     
  1032.70        500.000        2633.34     
  1031.28        500.000        2632.62     
  1029.86        500.000        2633.50     
  1028.44        500.000        2633.58     
  1027.01        500.000        2633.67     
  1025.59        500.000        2633.75     
  1024.17        500.000        2633.83     
  1022.75        500.000        2632.87     
  1021.33        500.000        2632.84     
  1019.91        500.000        2632.88     
  1018.48        500.000        2632.96     
  1017.06        500.000        2632.96     
  1015.64        500.000        2633.14     
  1014.22        500.000        2633.06     
  1012.80        500.000        2633.10     
  1011.37        500.000        2633.13     
  1009.95        500.000        2633.17     
  1008.53        500.000        2633.26     
  1007.11        500.000        2633.28     
  1005.69        500.000        2633.29     
  1004.27        500.000        2633.33     
  1002.84        500.000        2633.38     
  1001.42        500.000        2633.47     
  1000.00        500.000        2633.44     
