|6.6.6
Archiving\03_Data\eqfrac/QFM_m4.25/LAR/LAR_6.tab                          
           1
T(K)    
  0.000000000000000E+000
  0.000000000000000E+000
           0
           3
T(K)           P(bar)         rho,kg/m3     
  1426.28        2500.00        3332.27     
  1425.21        2500.00        3327.44     
  1424.14        2500.00        3338.98     
  1423.07        2500.00        3329.25     
  1422.01        2500.00        3334.77     
  1420.94        2500.00        3338.46     
  1419.87        2500.00        3339.34     
  1418.80        2500.00        3341.67     
  1417.73        2500.00        3339.13     
  1416.66        2500.00        3266.75     
  1415.60        2500.00        3151.01     
  1414.53        2500.00        3152.50     
  1413.46        2500.00        3153.94     
  1412.39        2500.00        3155.09     
  1411.32        2500.00        3156.50     
  1410.25        2500.00        3157.68     
  1409.19        2500.00        3159.82     
  1408.12        2500.00        3160.35     
  1407.05        2500.00        3162.37     
  1405.98        2500.00        3162.93     
  1404.91        2500.00        3164.03     
  1403.84        2500.00        3165.51     
  1402.78        2500.00        3166.82     
  1401.71        2500.00        3168.06     
  1400.64        2500.00        3169.86     
  1399.57        2500.00        3171.09     
  1398.50        2500.00        3171.24     
  1397.43        2500.00        3174.25     
  1396.37        2500.00        3175.13     
  1395.30        2500.00        3176.08     
  1394.23        2500.00        3177.57     
  1393.16        2500.00        3178.83     
  1392.09        2500.00        3180.16     
  1391.02        2500.00        3181.34     
  1389.96        2500.00        3182.47     
  1388.89        2500.00        3184.00     
  1387.82        2500.00        3185.41     
  1386.75        2500.00        3186.81     
  1385.68        2500.00        3187.96     
  1384.61        2500.00        3189.21     
  1383.55        2500.00        3191.03     
  1382.48        2500.00        3191.85     
  1381.41        2500.00        3304.01     
  1380.34        2500.00        3192.33     
  1379.27        2500.00        3195.80     
  1378.20        2500.00        3197.04     
  1377.13        2500.00        3198.35     
  1376.07        2500.00        3199.92     
  1375.00        2500.00        3200.99     
  1373.93        2500.00        3205.69     
  1372.86        2500.00        3203.62     
  1371.79        2500.00        3203.95     
  1370.72        2500.00        3207.18     
  1369.66        2500.00        3207.12     
  1368.59        2500.00        3208.37     
  1367.52        2500.00        3209.69     
  1366.45        2500.00        3210.86     
  1365.38        2500.00        3211.99     
  1364.31        2500.00        3213.35     
  1363.25        2500.00        3214.59     
  1362.18        2500.00        3215.82     
  1361.11        2500.00        3216.44     
  1360.04        2500.00        3218.31     
  1358.97        2500.00        3219.31     
  1357.90        2500.00        3220.67     
  1356.84        2500.00        3222.81     
  1355.77        2500.00        3222.30     
  1354.70        2500.00        3223.74     
  1353.63        2500.00        3224.47     
  1352.56        2500.00        3226.25     
  1351.49        2500.00        3226.90     
  1350.43        2500.00        3228.14     
  1349.36        2500.00        3229.19     
  1348.29        2500.00        3230.20     
  1347.22        2500.00        3231.38     
  1346.15        2500.00        3232.08     
  1345.08        2500.00        3233.51     
  1344.02        2500.00        3234.17     
  1342.95        2500.00        3235.36     
  1341.88        2500.00        3236.23     
  1340.81        2500.00        3237.28     
  1339.74        2500.00        3238.02     
  1338.67        2500.00        3238.91     
  1337.61        2500.00        3240.35     
  1336.54        2500.00        3241.04     
  1335.47        2500.00        3241.72     
  1334.40        2500.00        3242.56     
  1333.33        2500.00        3243.45     
  1332.26        2500.00        3244.12     
  1331.19        2500.00        3244.95     
  1330.13        2500.00        3246.93     
  1329.06        2500.00        3246.02     
  1327.99        2500.00        3239.69     
  1326.92        2500.00        3242.91     
  1325.85        2500.00        3252.61     
  1324.78        2500.00        3251.76     
  1323.72        2500.00        3253.66     
  1322.65        2500.00        3252.34     
  1321.58        2500.00        3251.78     
  1320.51        2500.00        3251.25     
  1319.44        2500.00        3243.85     
  1318.37        2500.00        3246.29     
  1317.31        2500.00        3269.97     
  1316.24        2500.00        3242.95     
  1315.17        2500.00        3256.22     
  1314.10        2500.00        3256.34     
  1313.03        2500.00        3253.50     
  1311.96        2500.00        3258.32     
  1310.90        2500.00        3254.20     
  1309.83        2500.00        3257.86     
  1308.76        2500.00        2932.97     
  1307.69        2500.00        2797.25     
  1306.62        2500.00        2799.64     
  1305.55        2500.00        2801.82     
  1304.49        2500.00        2804.15     
  1303.42        2500.00        2806.54     
  1302.35        2500.00        2808.60     
  1301.28        2500.00        2810.89     
  1300.21        2500.00        2812.62     
  1299.14        2500.00        2814.69     
  1298.08        2500.00        2816.26     
  1297.01        2500.00        2818.69     
  1295.94        2500.00        2820.53     
  1294.87        2500.00        2833.83     
  1293.80        2500.00        2837.14     
  1292.73        2500.00        2837.89     
  1291.67        2500.00        2838.37     
  1290.60        2500.00        2838.38     
  1289.53        2500.00        2838.41     
  1288.46        2500.00        2837.97     
  1287.39        2500.00        2837.23     
  1286.32        2500.00        2864.19     
  1285.26        2500.00        2798.81     
  1284.19        2500.00        2829.68     
  1283.12        2500.00        2828.18     
  1282.05        2500.00        2821.46     
  1280.98        2500.00        2817.42     
  1279.91        2500.00        2818.81     
  1278.84        2500.00        2824.34     
  1277.78        2500.00        2822.85     
  1276.71        2500.00        2833.89     
  1275.64        2500.00        2830.86     
  1274.57        2500.00        3887.91     
  1273.50        2500.00        4252.80     
  1272.43        2500.00        4251.04     
  1271.37        2500.00        4145.18     
  1270.30        2500.00        3591.05     
  1269.23        2500.00        3490.02     
  1268.16        2500.00        2746.75     
  1267.09        2500.00        2934.93     
  1266.02        2500.00        2835.99     
  1264.96        2500.00        2834.77     
  1263.89        2500.00        2852.59     
  1262.82        2500.00        2887.00     
  1261.75        2500.00        2801.08     
  1260.68        2500.00        2905.74     
  1259.61        2500.00        2682.59     
  1258.55        2500.00        3284.48     
  1257.48        2500.00        2859.12     
  1256.41        2500.00        2896.21     
  1255.34        2500.00        2801.49     
  1254.27        2500.00        2854.01     
  1253.20        2500.00        2739.59     
  1252.14        2500.00        2908.72     
  1251.07        2500.00        2877.42     
  1250.00        2500.00        2805.52     
  1248.93        2500.00        2830.03     
  1247.86        2500.00        2884.03     
  1246.79        2500.00        3312.54     
  1245.73        2500.00        3237.12     
  1244.66        2500.00        2765.50     
  1243.59        2500.00        3067.04     
  1242.52        2500.00        2711.15     
  1241.45        2500.00        2553.31     
  1240.38        2500.00        2989.25     
  1239.32        2500.00        2702.04     
  1238.25        2500.00        2809.41     
  1237.18        2500.00        2790.59     
  1236.11        2500.00        3020.67     
  1235.04        2500.00        2708.52     
  1233.97        2500.00        3003.07     
  1232.90        2500.00        2617.39     
  1231.84        2500.00        3009.04     
  1230.77        2500.00        2705.90     
  1229.70        2500.00        2673.61     
  1228.63        2500.00        2673.33     
  1227.56        2500.00        2673.55     
  1226.49        2500.00        2673.61     
  1225.43        2500.00        2673.67     
  1224.36        2500.00        2673.87     
  1223.29        2500.00        2673.87     
  1222.22        2500.00        2673.97     
  1221.15        2500.00        2673.89     
  1220.08        2500.00        2673.96     
  1219.02        2500.00        2673.99     
  1217.95        2500.00        2674.07     
  1216.88        2500.00        2674.12     
  1215.81        2500.00        2674.15     
  1214.74        2500.00        2674.20     
  1213.67        2500.00        2674.28     
  1212.61        2500.00        2674.47     
  1211.54        2500.00        2674.68     
  1210.47        2500.00        2674.76     
  1209.40        2500.00        2674.82     
  1208.33        2500.00        2674.70     
  1207.26        2500.00        2674.76     
  1206.20        2500.00        2674.82     
  1205.13        2500.00        2674.68     
  1204.06        2500.00        2674.18     
  1202.99        2500.00        2674.23     
  1201.92        2500.00        2675.01     
  1200.85        2500.00        2674.93     
  1199.79        2500.00        2675.12     
  1198.72        2500.00        2675.00     
  1197.65        2500.00        2675.09     
  1196.58        2500.00        2675.14     
  1195.51        2500.00        2674.61     
  1194.44        2500.00        2675.25     
  1193.38        2500.00        2675.30     
  1192.31        2500.00        2675.57     
  1191.24        2500.00        2675.41     
  1190.17        2500.00        2675.81     
  1189.10        2500.00        2675.49     
  1188.03        2500.00        2675.55     
  1186.96        2500.00        2675.63     
  1185.90        2500.00        2669.33     
  1184.83        2500.00        2669.34     
  1183.76        2500.00        2669.43     
  1182.69        2500.00        2669.48     
  1181.62        2500.00        2669.34     
  1180.55        2500.00        2676.11     
  1179.49        2500.00        2669.62     
  1178.42        2500.00        2669.66     
  1177.35        2500.00        2676.09     
  1176.28        2500.00        2676.14     
  1175.21        2500.00        2669.81     
  1174.14        2500.00        2669.86     
  1173.08        2500.00        2676.60     
  1172.01        2500.00        2669.95     
  1170.94        2500.00        2675.87     
  1169.87        2500.00        2670.05     
  1168.80        2500.00        2676.52     
  1167.73        2500.00        2676.58     
  1166.67        2500.00        2676.63     
  1165.60        2500.00        2676.68     
  1164.53        2500.00        2676.74     
  1163.46        2500.00        2676.79     
  1162.39        2500.00        2676.85     
  1161.32        2500.00        2676.41     
  1160.26        2500.00        2672.09     
  1159.19        2500.00        2676.67     
  1158.12        2500.00        2672.73     
  1157.05        2500.00        2677.33     
  1155.98        2500.00        2677.44     
  1154.91        2500.00        2670.53     
  1153.85        2500.00        2670.58     
  1152.78        2500.00        2670.81     
  1151.71        2500.00        2670.68     
  1150.64        2500.00        2670.73     
  1149.57        2500.00        2676.94     
  1148.50        2500.00        2670.82     
  1147.44        2500.00        2670.87     
  1146.37        2500.00        2671.09     
  1145.30        2500.00        2670.97     
  1144.23        2500.00        2671.01     
  1143.16        2500.00        2671.06     
  1142.09        2500.00        2677.56     
  1141.02        2500.00        2671.16     
  1139.96        2500.00        2671.21     
  1138.89        2500.00        2677.48     
  1137.82        2500.00        2678.52     
  1136.75        2500.00        2677.83     
  1135.68        2500.00        2677.66     
  1134.61        2500.00        2678.24     
  1133.55        2500.00        2678.28     
  1132.48        2500.00        2677.24     
  1131.41        2500.00        2677.34     
  1130.34        2500.00        2678.15     
  1129.27        2500.00        2678.20     
  1128.20        2500.00        2672.37     
  1127.14        2500.00        2678.31     
  1126.07        2500.00        2678.13     
  1125.00        2500.00        2678.42     
  1123.93        2500.00        2678.16     
  1122.86        2500.00        2678.52     
  1121.79        2500.00        2678.57     
  1120.73        2500.00        2678.63     
  1119.66        2500.00        2678.68     
  1118.59        2500.00        2672.17     
  1117.52        2500.00        2678.79     
  1116.45        2500.00        2678.84     
  1115.38        2500.00        2672.31     
  1114.32        2500.00        2678.95     
  1113.25        2500.00        2679.00     
  1112.18        2500.00        2679.05     
  1111.11        2500.00        2679.11     
  1110.04        2500.00        2679.16     
  1108.97        2500.00        2678.99     
  1107.91        2500.00        2679.05     
  1106.84        2500.00        2679.10     
  1105.77        2500.00        2679.15     
  1104.70        2500.00        2679.21     
  1103.63        2500.00        2672.85     
  1102.56        2500.00        2679.31     
  1101.50        2500.00        2679.37     
  1100.43        2500.00        2679.42     
  1099.36        2500.00        2679.47     
  1098.29        2500.00        2673.08     
  1097.22        2500.00        2673.13     
  1096.15        2500.00        2673.18     
  1095.09        2500.00        2673.23     
  1094.02        2500.00        2673.26     
  1092.95        2500.00        2673.32     
  1091.88        2500.00        2673.37     
  1090.81        2500.00        2673.42     
  1089.74        2500.00        2673.47     
  1088.67        2500.00        2673.51     
  1087.61        2500.00        2673.56     
  1086.54        2500.00        2673.61     
  1085.47        2500.00        2673.66     
  1084.40        2500.00        2673.69     
  1083.33        2500.00        2673.74     
  1082.26        2500.00        2673.78     
  1081.20        2500.00        2673.83     
  1080.13        2500.00        2673.88     
  1079.06        2500.00        2673.93     
  1077.99        2500.00        2673.98     
  1076.92        2500.00        2681.15     
  1075.85        2500.00        2681.21     
  1074.79        2500.00        2680.68     
  1073.72        2500.00        2681.31     
  1072.65        2500.00        2674.23     
  1071.58        2500.00        2674.27     
  1070.51        2500.00        2681.48     
  1069.44        2500.00        2674.37     
  1068.38        2500.00        2681.58     
  1067.31        2500.00        2674.52     
  1066.24        2500.00        2674.57     
  1065.17        2500.00        2674.61     
  1064.10        2500.00        2674.60     
  1063.03        2500.00        2674.65     
  1061.97        2500.00        2674.72     
  1060.90        2500.00        2674.74     
  1059.83        2500.00        2674.79     
  1058.76        2500.00        2674.84     
  1057.69        2500.00        2674.89     
  1056.62        2500.00        2674.93     
  1055.56        2500.00        2674.98     
  1054.49        2500.00        2675.03     
  1053.42        2500.00        2675.08     
  1052.35        2500.00        2675.12     
  1051.28        2500.00        2675.17     
  1050.21        2500.00        2675.22     
  1049.15        2500.00        2675.27     
  1048.08        2500.00        2675.32     
  1047.01        2500.00        2682.65     
  1045.94        2500.00        2682.08     
  1044.87        2500.00        2683.10     
  1043.80        2500.00        2682.94     
  1042.73        2500.00        2682.97     
  1041.67        2500.00        2683.01     
  1040.60        2500.00        2682.49     
  1039.53        2500.00        2682.54     
  1038.46        2500.00        2683.08     
  1037.39        2500.00        2682.64     
  1036.32        2500.00        2683.18     
  1035.26        2500.00        2683.24     
  1034.19        2500.00        2683.29     
  1033.12        2500.00        2683.34     
  1032.05        2500.00        2682.89     
  1030.98        2500.00        2683.45     
  1029.91        2500.00        2683.50     
  1028.85        2500.00        2683.55     
  1027.78        2500.00        2683.61     
  1026.71        2500.00        2683.66     
  1025.64        2500.00        2683.71     
  1024.57        2500.00        2683.76     
  1023.50        2500.00        2683.82     
  1022.44        2500.00        2683.87     
  1021.37        2500.00        2683.92     
  1020.30        2500.00        2683.98     
  1019.23        2500.00        2684.03     
  1018.16        2500.00        2684.08     
  1017.09        2500.00        2684.13     
  1016.03        2500.00        2684.19     
  1014.96        2500.00        2684.24     
  1013.89        2500.00        2684.30     
  1012.82        2500.00        2684.36     
  1011.75        2500.00        2684.41     
  1010.68        2500.00        2683.76     
  1009.62        2500.00        2684.52     
  1008.55        2500.00        2683.86     
  1007.48        2500.00        2683.91     
  1006.41        2500.00        2683.96     
  1005.34        2500.00        2684.01     
  1004.27        2500.00        2684.06     
  1003.21        2500.00        2684.11     
  1002.14        2500.00        2684.16     
  1001.07        2500.00        2684.21     
