|6.6.6
Archiving\03_Data\eqfrac/QFM_m3.75/EETA/EETA_6.tab                        
           1
T(K)    
  0.000000000000000E+000
  0.000000000000000E+000
           0
           3
T(K)           P(bar)         rho,kg/m3     
  1461.54        2500.00        3331.82     
  1460.38        2500.00        3307.45     
  1459.23        2500.00        3304.34     
  1458.07        2500.00        3305.25     
  1456.91        2500.00        3306.05     
  1455.76        2500.00        3307.22     
  1454.60        2500.00        3308.18     
  1453.44        2500.00        3309.26     
  1452.29        2500.00        3310.27     
  1451.13        2500.00        3310.91     
  1449.97        2500.00        3312.08     
  1448.82        2500.00        3312.94     
  1447.66        2500.00        3314.50     
  1446.50        2500.00        3314.84     
  1445.35        2500.00        3316.00     
  1444.19        2500.00        3316.84     
  1443.03        2500.00        3317.99     
  1441.88        2500.00        3319.09     
  1440.72        2500.00        3319.90     
  1439.56        2500.00        3321.34     
  1438.41        2500.00        3321.93     
  1437.25        2500.00        3322.96     
  1436.09        2500.00        3324.19     
  1434.93        2500.00        3325.25     
  1433.78        2500.00        3326.26     
  1432.62        2500.00        3280.25     
  1431.46        2500.00        3133.18     
  1430.31        2500.00        3134.52     
  1429.15        2500.00        3144.30     
  1427.99        2500.00        3147.76     
  1426.84        2500.00        3149.80     
  1425.68        2500.00        3151.03     
  1424.52        2500.00        3152.77     
  1423.37        2500.00        3154.43     
  1422.21        2500.00        3154.85     
  1421.05        2500.00        3157.57     
  1419.90        2500.00        3159.30     
  1418.74        2500.00        3160.55     
  1417.58        2500.00        3162.57     
  1416.43        2500.00        3163.87     
  1415.27        2500.00        3165.35     
  1414.11        2500.00        3167.07     
  1412.96        2500.00        3168.74     
  1411.80        2500.00        3170.39     
  1410.64        2500.00        3170.74     
  1409.49        2500.00        3176.67     
  1408.33        2500.00        3175.22     
  1407.17        2500.00        3176.86     
  1406.02        2500.00        3178.50     
  1404.86        2500.00        3180.06     
  1403.70        2500.00        3181.81     
  1402.55        2500.00        3183.25     
  1401.39        2500.00        3184.89     
  1400.23        2500.00        3186.46     
  1399.08        2500.00        3187.90     
  1397.92        2500.00        3189.82     
  1396.76        2500.00        3191.30     
  1395.61        2500.00        3192.81     
  1394.45        2500.00        3194.66     
  1393.29        2500.00        3196.29     
  1392.14        2500.00        3197.65     
  1390.98        2500.00        3199.06     
  1389.82        2500.00        3201.11     
  1388.67        2500.00        3202.67     
  1387.51        2500.00        3204.04     
  1386.35        2500.00        3205.55     
  1385.20        2500.00        3207.29     
  1384.04        2500.00        3209.02     
  1382.88        2500.00        3210.38     
  1381.72        2500.00        3212.09     
  1380.57        2500.00        3213.64     
  1379.41        2500.00        3215.16     
  1378.25        2500.00        3216.80     
  1377.10        2500.00        3218.47     
  1375.94        2500.00        3219.85     
  1374.78        2500.00        3221.34     
  1373.63        2500.00        3222.91     
  1372.47        2500.00        3224.49     
  1371.31        2500.00        3225.95     
  1370.16        2500.00        3227.51     
  1369.00        2500.00        3228.90     
  1367.84        2500.00        3230.32     
  1366.69        2500.00        3231.00     
  1365.53        2500.00        3233.00     
  1364.37        2500.00        3234.42     
  1363.22        2500.00        3236.31     
  1362.06        2500.00        3237.02     
  1360.90        2500.00        3238.54     
  1359.75        2500.00        3237.58     
  1358.59        2500.00        3241.28     
  1357.43        2500.00        3242.34     
  1356.28        2500.00        3243.33     
  1355.12        2500.00        3245.54     
  1353.96        2500.00        3246.04     
  1352.81        2500.00        3247.33     
  1351.65        2500.00        3248.24     
  1350.49        2500.00        3245.39     
  1349.34        2500.00        3251.46     
  1348.18        2500.00        3252.01     
  1347.02        2500.00        3253.29     
  1345.87        2500.00        3255.70     
  1344.71        2500.00        3254.99     
  1343.55        2500.00        3256.70     
  1342.40        2500.00        3258.04     
  1341.24        2500.00        3259.51     
  1340.08        2500.00        3260.46     
  1338.93        2500.00        3261.28     
  1337.77        2500.00        3262.60     
  1336.61        2500.00        3262.94     
  1335.46        2500.00        3263.37     
  1334.30        2500.00        3266.66     
  1333.14        2500.00        3266.49     
  1331.98        2500.00        3267.14     
  1330.83        2500.00        3268.16     
  1329.67        2500.00        3268.49     
  1328.51        2500.00        3269.90     
  1327.36        2500.00        3270.93     
  1326.20        2500.00        3269.95     
  1325.04        2500.00        3273.11     
  1323.89        2500.00        3272.90     
  1322.73        2500.00        3277.35     
  1321.57        2500.00        3274.00     
  1320.42        2500.00        3274.39     
  1319.26        2500.00        3275.33     
  1318.10        2500.00        3275.20     
  1316.95        2500.00        3277.35     
  1315.79        2500.00        3277.12     
  1314.63        2500.00        3279.52     
  1313.48        2500.00        3278.61     
  1312.32        2500.00        3279.30     
  1311.16        2500.00        3280.07     
  1310.01        2500.00        3278.35     
  1308.85        2500.00        3276.54     
  1307.69        2500.00        2845.78     
  1306.54        2500.00        2816.10     
  1305.38        2500.00        2819.83     
  1304.22        2500.00        2823.18     
  1303.07        2500.00        2826.49     
  1301.91        2500.00        2830.00     
  1300.75        2500.00        2833.21     
  1299.60        2500.00        2847.86     
  1298.44        2500.00        2855.12     
  1297.28        2500.00        2858.64     
  1296.13        2500.00        2861.67     
  1294.97        2500.00        2864.51     
  1293.81        2500.00        2867.21     
  1292.66        2500.00        2869.62     
  1291.50        2500.00        2871.91     
  1290.34        2500.00        2874.14     
  1289.19        2500.00        2876.10     
  1288.03        2500.00        2857.21     
  1286.87        2500.00        2909.14     
  1285.72        2500.00        3049.57     
  1284.56        2500.00        2890.34     
  1283.40        2500.00        2848.05     
  1282.25        2500.00        2884.19     
  1281.09        2500.00        2877.90     
  1279.93        2500.00        2868.12     
  1278.77        2500.00        2903.01     
  1277.62        2500.00        2882.97     
  1276.46        2500.00        2870.62     
  1275.30        2500.00        2868.38     
  1274.15        2500.00        2890.19     
  1272.99        2500.00        2881.15     
  1271.83        2500.00        2881.14     
  1270.68        2500.00        2868.44     
  1269.52        2500.00        2902.05     
  1268.36        2500.00        2885.53     
  1267.21        2500.00        2840.22     
  1266.05        2500.00        2939.50     
  1264.89        2500.00        2888.21     
  1263.74        2500.00        2987.18     
  1262.58        2500.00        2865.53     
  1261.42        2500.00        3112.24     
  1260.27        2500.00        2748.85     
  1259.11        2500.00        2866.49     
  1257.95        2500.00        2867.30     
  1256.80        2500.00        2791.17     
  1255.64        2500.00        2769.17     
  1254.48        2500.00        2999.22     
  1253.33        2500.00        2830.84     
  1252.17        2500.00        2874.59     
  1251.01        2500.00        2834.84     
  1249.86        2500.00        3021.02     
  1248.70        2500.00        2753.19     
  1247.54        2500.00        2525.42     
  1246.39        2500.00        3254.53     
  1245.23        2500.00        2744.83     
  1244.07        2500.00        2591.89     
  1242.92        2500.00        3440.91     
  1241.76        2500.00        2957.32     
  1240.60        2500.00        3348.88     
  1239.45        2500.00        2805.82     
  1238.29        2500.00        2849.57     
  1237.13        2500.00        3008.16     
  1235.98        2500.00        2822.81     
  1234.82        2500.00        2867.01     
  1233.66        2500.00        2925.48     
  1232.51        2500.00        2686.12     
  1231.35        2500.00        2695.81     
  1230.19        2500.00        2679.13     
  1229.03        2500.00        2679.40     
  1227.88        2500.00        2679.44     
  1226.72        2500.00        2679.47     
  1225.56        2500.00        2679.59     
  1224.41        2500.00        2679.57     
  1223.25        2500.00        2679.67     
  1222.09        2500.00        2679.74     
  1220.94        2500.00        2679.80     
  1219.78        2500.00        2679.86     
  1218.62        2500.00        2679.93     
  1217.47        2500.00        2679.98     
  1216.31        2500.00        2680.04     
  1215.15        2500.00        2680.10     
  1214.00        2500.00        2680.19     
  1212.84        2500.00        2680.24     
  1211.68        2500.00        2680.27     
  1210.53        2500.00        2680.36     
  1209.37        2500.00        2680.35     
  1208.21        2500.00        2680.48     
  1207.06        2500.00        2680.54     
  1205.90        2500.00        2680.60     
  1204.74        2500.00        2680.66     
  1203.59        2500.00        2680.72     
  1202.43        2500.00        2680.78     
  1201.27        2500.00        2680.83     
  1200.12        2500.00        2680.89     
  1198.96        2500.00        2680.97     
  1197.80        2500.00        2680.97     
  1196.65        2500.00        2681.02     
  1195.49        2500.00        2681.11     
  1194.33        2500.00        2681.16     
  1193.18        2500.00        2681.23     
  1192.02        2500.00        2681.29     
  1190.86        2500.00        2681.35     
  1189.71        2500.00        2681.41     
  1188.55        2500.00        2681.48     
  1187.39        2500.00        2681.54     
  1186.24        2500.00        2681.59     
  1185.08        2500.00        2681.66     
  1183.92        2500.00        2681.71     
  1182.77        2500.00        2681.78     
  1181.61        2500.00        2681.79     
  1180.45        2500.00        2681.85     
  1179.29        2500.00        2681.96     
  1178.14        2500.00        2681.97     
  1176.98        2500.00        2682.03     
  1175.82        2500.00        2682.12     
  1174.67        2500.00        2682.15     
  1173.51        2500.00        2682.22     
  1172.35        2500.00        2682.74     
  1171.20        2500.00        2682.37     
  1170.04        2500.00        2682.39     
  1168.88        2500.00        2682.45     
  1167.73        2500.00        2682.55     
  1166.57        2500.00        2682.58     
  1165.41        2500.00        2682.65     
  1164.26        2500.00        2682.71     
  1163.10        2500.00        2682.81     
  1161.94        2500.00        2682.86     
  1160.79        2500.00        2682.92     
  1159.63        2500.00        2682.95     
  1158.47        2500.00        2683.01     
  1157.32        2500.00        2683.09     
  1156.16        2500.00        2683.14     
  1155.00        2500.00        2683.20     
  1153.85        2500.00        2683.25     
  1152.69        2500.00        2683.31     
  1151.53        2500.00        2683.38     
  1150.38        2500.00        2683.44     
  1149.22        2500.00        2683.50     
  1148.06        2500.00        2683.56     
  1146.91        2500.00        2683.61     
  1145.75        2500.00        2683.52     
  1144.59        2500.00        2683.75     
  1143.44        2500.00        2683.79     
  1142.28        2500.00        2683.85     
  1141.12        2500.00        2683.93     
  1139.97        2500.00        2683.97     
  1138.81        2500.00        2684.01     
  1137.65        2500.00        2684.09     
  1136.50        2500.00        2684.13     
  1135.34        2500.00        2684.13     
  1134.18        2500.00        2684.27     
  1133.03        2500.00        2684.31     
  1131.87        2500.00        2684.36     
  1130.71        2500.00        2684.38     
  1129.56        2500.00        2684.50     
  1128.40        2500.00        2684.56     
  1127.24        2500.00        2684.61     
  1126.08        2500.00        2684.67     
  1124.93        2500.00        2684.72     
  1123.77        2500.00        2684.77     
  1122.61        2500.00        2684.82     
  1121.46        2500.00        2684.87     
  1120.30        2500.00        2684.93     
  1119.14        2500.00        2684.96     
  1117.99        2500.00        2685.05     
  1116.83        2500.00        2685.11     
  1115.67        2500.00        2685.18     
  1114.52        2500.00        2685.24     
  1113.36        2500.00        2685.29     
  1112.20        2500.00        2685.35     
  1111.05        2500.00        2685.40     
  1109.89        2500.00        2685.46     
  1108.73        2500.00        2685.52     
  1107.58        2500.00        2685.57     
  1106.42        2500.00        2685.63     
  1105.26        2500.00        2685.68     
  1104.11        2500.00        2685.74     
  1102.95        2500.00        2685.80     
  1101.79        2500.00        2685.86     
  1100.64        2500.00        2685.90     
  1099.48        2500.00        2685.97     
  1098.32        2500.00        2686.02     
  1097.17        2500.00        2686.07     
  1096.01        2500.00        2686.13     
  1094.85        2500.00        2686.19     
  1093.70        2500.00        2686.25     
  1092.54        2500.00        2686.33     
  1091.38        2500.00        2686.51     
  1090.23        2500.00        2686.45     
  1089.07        2500.00        2686.51     
  1087.91        2500.00        2686.63     
  1086.76        2500.00        2686.70     
  1085.60        2500.00        2686.76     
  1084.44        2500.00        2686.74     
  1083.29        2500.00        2686.82     
  1082.13        2500.00        2686.86     
  1080.97        2500.00        2687.00     
  1079.82        2500.00        2687.06     
  1078.66        2500.00        2687.12     
  1077.50        2500.00        2687.18     
  1076.34        2500.00        2687.18     
  1075.19        2500.00        2687.30     
  1074.03        2500.00        2687.34     
  1072.87        2500.00        2687.34     
  1071.72        2500.00        2687.38     
  1070.56        2500.00        2687.45     
  1069.40        2500.00        2687.50     
  1068.25        2500.00        2687.57     
  1067.09        2500.00        2687.61     
  1065.93        2500.00        2687.68     
  1064.78        2500.00        2687.74     
  1063.62        2500.00        2687.78     
  1062.46        2500.00        2687.85     
  1061.31        2500.00        2687.90     
  1060.15        2500.00        2687.96     
  1058.99        2500.00        2688.02     
  1057.84        2500.00        2688.06     
  1056.68        2500.00        2688.13     
  1055.52        2500.00        2688.16     
  1054.37        2500.00        2688.24     
  1053.21        2500.00        2688.29     
  1052.05        2500.00        2688.35     
  1050.90        2500.00        2688.38     
  1049.74        2500.00        2688.50     
  1048.58        2500.00        2688.59     
  1047.43        2500.00        2688.65     
  1046.27        2500.00        2688.70     
  1045.11        2500.00        2688.76     
  1043.96        2500.00        2688.81     
  1042.80        2500.00        2688.87     
  1041.64        2500.00        2688.93     
  1040.49        2500.00        2688.99     
  1039.33        2500.00        2689.03     
  1038.17        2500.00        2689.09     
  1037.02        2500.00        2689.15     
  1035.86        2500.00        2689.21     
  1034.70        2500.00        2689.31     
  1033.55        2500.00        2689.34     
  1032.39        2500.00        2689.42     
  1031.23        2500.00        2689.43     
  1030.08        2500.00        2689.48     
  1028.92        2500.00        2689.53     
  1027.76        2500.00        2689.75     
  1026.61        2500.00        2689.78     
  1025.45        2500.00        2689.82     
  1024.29        2500.00        2689.88     
  1023.13        2500.00        2689.96     
  1021.98        2500.00        2689.97     
  1020.82        2500.00        2690.00     
  1019.66        2500.00        2689.91     
  1018.51        2500.00        2690.16     
  1017.35        2500.00        2690.22     
  1016.19        2500.00        2690.27     
  1015.04        2500.00        2690.33     
  1013.88        2500.00        2690.39     
  1012.72        2500.00        2690.44     
  1011.57        2500.00        2690.50     
  1010.41        2500.00        2690.56     
  1009.25        2500.00        2690.61     
  1008.10        2500.00        2690.57     
  1006.94        2500.00        2690.72     
  1005.78        2500.00        2690.78     
  1004.63        2500.00        2690.84     
  1003.47        2500.00        2690.89     
  1002.31        2500.00        2690.95     
  1001.16        2500.00        2691.01     
  1000.00        2500.00        2691.06     
