|6.6.6
Archiving\03_Data\DeqLP/QFM_m1/YM20/YM20_6.tab                          
           1
T(K)    
  0.000000000000000E+000
  0.000000000000000E+000
           0
           3
T(K)           P(bar)         rho,kg/m3     
  2000.00        500.000        8099.88     
  1996.79        500.000        8101.72     
  1993.59        500.000        8103.55     
  1990.38        500.000        8105.38     
  1987.18        500.000        8107.21     
  1983.97        500.000        8109.03     
  1980.77        500.000        8110.86     
  1977.56        500.000        8112.68     
  1974.36        500.000        8114.50     
  1971.15        500.000        8116.32     
  1967.95        500.000        8118.14     
  1964.74        500.000        8119.96     
  1961.54        500.000        8121.78     
  1958.33        500.000        3239.83     
  1955.13        500.000        3234.43     
  1951.92        500.000        3228.84     
  1948.72        500.000        3223.92     
  1945.51        500.000        3214.68     
  1942.31        500.000        3207.32     
  1939.10        500.000        3201.35     
  1935.90        500.000        3196.41     
  1932.69        500.000        3192.29     
  1929.49        500.000        3188.81     
  1926.28        500.000        3185.84     
  1923.08        500.000        3183.30     
  1919.87        500.000        3176.21     
  1916.67        500.000        3171.49     
  1913.46        500.000        3168.17     
  1910.26        500.000        3165.76     
  1907.05        500.000        3163.96     
  1903.85        500.000        3162.59     
  1900.64        500.000        3161.55     
  1897.44        500.000        3160.75     
  1894.23        500.000        3162.72     
  1891.03        500.000        3165.74     
  1887.82        500.000        3168.36     
  1884.62        500.000        3170.56     
  1881.41        500.000        3173.09     
  1878.21        500.000        3175.27     
  1875.00        500.000        3177.19     
  1871.79        500.000        3178.90     
  1868.59        500.000        3181.44     
  1865.38        500.000        3183.71     
  1862.18        500.000        3185.77     
  1858.97        500.000        3187.65     
  1855.77        500.000        3189.38     
  1852.56        500.000        3190.98     
  1849.36        500.000        3192.48     
  1846.15        500.000        3193.88     
  1842.95        500.000        3196.15     
  1839.74        500.000        3198.27     
  1836.54        500.000        3200.27     
  1833.33        500.000        3202.15     
  1830.13        500.000        3203.93     
  1826.92        500.000        3205.62     
  1823.72        500.000        3207.23     
  1820.51        500.000        3208.76     
  1817.31        500.000        3210.88     
  1814.10        500.000        3212.90     
  1810.90        500.000        3214.83     
  1807.69        500.000        3216.68     
  1804.49        500.000        3218.46     
  1801.28        500.000        3220.16     
  1798.08        500.000        3221.81     
  1794.87        500.000        3223.39     
  1791.67        500.000        3225.38     
  1788.46        500.000        3227.30     
  1785.26        500.000        3229.15     
  1782.05        500.000        3230.95     
  1778.85        500.000        3232.68     
  1775.64        500.000        3234.37     
  1772.44        500.000        3236.00     
  1769.23        500.000        3237.59     
  1766.03        500.000        3239.43     
  1762.82        500.000        3241.22     
  1759.62        500.000        3242.96     
  1756.41        500.000        3244.65     
  1753.21        500.000        3246.30     
  1750.00        500.000        3247.91     
  1746.79        500.000        3249.48     
  1743.59        500.000        3251.02     
  1740.38        500.000        3252.72     
  1737.18        500.000        3254.38     
  1733.97        500.000        3256.01     
  1730.77        500.000        3257.60     
  1727.56        500.000        3259.15     
  1724.36        500.000        3260.67     
  1721.15        500.000        3262.16     
  1717.95        500.000        3263.63     
  1714.74        500.000        3265.15     
  1711.54        500.000        3266.64     
  1708.33        500.000        3268.10     
  1705.13        500.000        3269.54     
  1701.92        500.000        3270.95     
  1698.72        500.000        3272.34     
  1695.51        500.000        3273.71     
  1692.31        500.000        3275.05     
  1689.10        500.000        3276.40     
  1685.90        500.000        3277.73     
  1682.69        500.000        3279.03     
  1679.49        500.000        3280.32     
  1676.28        500.000        3281.59     
  1673.08        500.000        3282.85     
  1669.87        500.000        3284.08     
  1666.67        500.000        3285.30     
  1663.46        500.000        3286.47     
  1660.26        500.000        3287.64     
  1657.05        500.000        3288.78     
  1653.85        500.000        3289.92     
  1650.64        500.000        3291.04     
  1647.44        500.000        3292.15     
  1644.23        500.000        3293.24     
  1641.03        500.000        3294.33     
  1637.82        500.000        3295.36     
  1634.62        500.000        3296.39     
  1631.41        500.000        3297.40     
  1628.21        500.000        3298.40     
  1625.00        500.000        3299.40     
  1621.79        500.000        3300.38     
  1618.59        500.000        3301.36     
  1615.38        500.000        3302.33     
  1612.18        500.000        3303.12     
  1608.97        500.000        3301.94     
  1605.77        500.000        3300.96     
  1602.56        500.000        3300.03     
  1599.36        500.000        3299.36     
  1596.15        500.000        3298.74     
  1592.95        500.000        3298.15     
  1589.74        500.000        3297.60     
  1586.54        500.000        3297.33     
  1583.33        500.000        3297.08     
  1580.13        500.000        3296.85     
  1576.92        500.000        3296.64     
  1573.72        500.000        3296.45     
  1570.51        500.000        3296.27     
  1567.31        500.000        3296.11     
  1564.10        500.000        3295.96     
  1560.90        500.000        3295.99     
  1557.69        500.000        3296.03     
  1554.49        500.000        3296.08     
  1551.28        500.000        3296.13     
  1548.08        500.000        3296.20     
  1544.87        500.000        3296.27     
  1541.67        500.000        3296.34     
  1538.46        500.000        3296.43     
  1535.26        500.000        3296.60     
  1532.05        500.000        3296.77     
  1528.85        500.000        3296.94     
  1525.64        500.000        3297.13     
  1522.44        500.000        3297.31     
  1519.23        500.000        3297.50     
  1516.03        500.000        3297.69     
  1512.82        500.000        3297.89     
  1509.62        500.000        3298.12     
  1506.41        500.000        3298.35     
  1503.21        500.000        3298.58     
  1500.00        500.000        3298.82     
  1496.79        500.000        3299.06     
  1493.59        500.000        3299.30     
  1490.38        500.000        3299.55     
  1487.18        500.000        3299.80     
  1483.97        500.000        3300.07     
  1480.77        500.000        3300.34     
  1477.56        500.000        3300.61     
  1474.36        500.000        3300.89     
  1471.15        500.000        3301.17     
  1467.95        500.000        3301.58     
  1464.74        500.000        3301.99     
  1461.54        500.000        3302.40     
  1458.33        500.000        3302.85     
  1455.13        500.000        3303.30     
  1451.92        500.000        3303.75     
  1448.72        500.000        3304.20     
  1445.51        500.000        3304.68     
  1442.31        500.000        3305.15     
  1439.10        500.000        3304.33     
  1435.90        500.000        3303.14     
  1432.69        500.000        3303.58     
  1429.49        500.000        3304.02     
  1426.28        500.000        3304.46     
  1423.08        500.000        3304.90     
  1419.87        500.000        3305.34     
  1416.67        500.000        3305.78     
  1413.46        500.000        3306.22     
  1410.26        500.000        3297.59     
  1407.05        500.000        3298.02     
  1403.85        500.000        3298.45     
  1400.64        500.000        3298.89     
  1397.44        500.000        3299.32     
  1394.23        500.000        3299.75     
  1391.03        500.000        3300.18     
  1387.82        500.000        3300.62     
  1384.62        500.000        3295.97     
  1381.41        500.000        3296.40     
  1378.21        500.000        3296.83     
  1375.00        500.000        3297.26     
  1371.79        500.000        3297.68     
  1368.59        500.000        3298.11     
  1365.38        500.000        3298.54     
  1362.18        500.000        3298.96     
  1358.97        500.000        3295.52     
  1355.77        500.000        3295.94     
  1352.56        500.000        3296.36     
  1349.36        500.000        3296.79     
  1346.15        500.000        3297.21     
  1342.95        500.000        3297.64     
  1339.74        500.000        3298.06     
  1336.54        500.000        3298.48     
  1333.33        500.000        3295.59     
  1330.13        500.000        3296.01     
  1326.92        500.000        3296.43     
  1323.72        500.000        3296.85     
  1320.51        500.000        3297.27     
  1317.31        500.000        3297.69     
  1314.10        500.000        3298.11     
  1310.90        500.000        3298.53     
  1307.69        500.000        3296.01     
  1304.49        500.000        3296.43     
  1301.28        500.000        3296.16     
  1298.08        500.000        3293.93     
  1294.87        500.000        3292.28     
  1291.67        500.000        3292.69     
  1288.46        500.000        3293.10     
  1285.26        500.000        3293.52     
  1282.05        500.000        3293.64     
  1278.85        500.000        3294.05     
  1275.64        500.000        3294.47     
  1272.44        500.000        3294.88     
  1269.23        500.000        3295.29     
  1266.03        500.000        3295.71     
  1262.82        500.000        3296.12     
  1259.62        500.000        3296.53     
  1256.41        500.000        3296.40     
  1253.21        500.000        3296.81     
  1250.00        500.000        3297.22     
  1246.79        500.000        3297.63     
  1243.59        500.000        3298.04     
  1240.38        500.000        3298.45     
  1237.18        500.000        3298.86     
  1233.97        500.000        3299.27     
  1230.77        500.000        3299.18     
  1227.56        500.000        3299.59     
  1224.36        500.000        3300.00     
  1221.15        500.000        3300.41     
  1217.95        500.000        3300.81     
  1214.74        500.000        3301.22     
  1211.54        500.000        3301.63     
  1208.33        500.000        3302.03     
  1205.13        500.000        3301.99     
  1201.92        500.000        3302.39     
  1198.72        500.000        3302.80     
  1195.51        500.000        3303.20     
  1192.31        500.000        3303.61     
  1189.10        500.000        3304.01     
  1185.90        500.000        3304.42     
  1182.69        500.000        3304.82     
  1179.49        500.000        3304.81     
  1176.28        500.000        3305.21     
  1173.08        500.000        3305.62     
  1169.87        500.000        3306.02     
  1166.67        500.000        3306.42     
  1163.46        500.000        3306.83     
  1160.26        500.000        3307.23     
  1157.05        500.000        3307.63     
  1153.85        500.000        3307.65     
  1150.64        500.000        3308.05     
  1147.44        500.000        3308.45     
  1144.23        500.000        3308.86     
  1141.03        500.000        3309.26     
  1137.82        500.000        3309.66     
  1134.62        500.000        3310.06     
  1131.41        500.000        3310.46     
  1128.21        500.000        3310.52     
  1125.00        500.000        3310.92     
  1121.79        500.000        3311.32     
  1118.59        500.000        3311.72     
  1115.38        500.000        3312.12     
  1112.18        500.000        3312.51     
  1108.97        500.000        3312.91     
  1105.77        500.000        3313.31     
  1102.56        500.000        3313.40     
  1099.36        500.000        3313.80     
  1096.15        500.000        3314.20     
  1092.95        500.000        3314.59     
  1089.74        500.000        3314.99     
  1086.54        500.000        3315.39     
  1083.33        500.000        3315.78     
  1080.13        500.000        3316.18     
  1076.92        500.000        3316.31     
  1073.72        500.000        3316.71     
  1070.51        500.000        3317.04     
  1067.31        500.000        3317.41     
  1064.10        500.000        3317.78     
  1060.90        500.000        3318.17     
  1057.69        500.000        3318.56     
  1054.49        500.000        3318.96     
  1051.28        500.000        3319.23     
  1048.08        500.000        3319.62     
  1044.87        500.000        3320.02     
  1041.67        500.000        3320.41     
  1038.46        500.000        3320.80     
  1035.26        500.000        3321.19     
  1032.05        500.000        3321.59     
  1028.85        500.000        3321.98     
  1025.64        500.000        3322.15     
  1022.44        500.000        3322.54     
  1019.23        500.000        3322.93     
  1016.03        500.000        3323.32     
  1012.82        500.000        3323.71     
  1009.62        500.000        3324.10     
  1006.41        500.000        3324.49     
  1003.21        500.000        3324.88     
  1000.00        500.000        3325.08     
