|6.6.6
Archiving\03_Data\eqfracLP/QFM_m2.75/ALH/ALH_6.tab                        
           1
T(K)    
  0.000000000000000E+000
  0.000000000000000E+000
           0
           3
T(K)           P(bar)         rho,kg/m3     
  1528.85        500.000        3389.27     
  1527.52        500.000        3273.22     
  1526.20        500.000        3268.06     
  1524.87        500.000        3268.58     
  1523.55        500.000        3268.86     
  1522.22        500.000        3269.44     
  1520.90        500.000        3269.19     
  1519.57        500.000        3273.26     
  1518.25        500.000        3271.76     
  1516.92        500.000        3272.01     
  1515.60        500.000        3270.60     
  1514.27        500.000        3273.04     
  1512.94        500.000        3272.34     
  1511.62        500.000        3272.11     
  1510.29        500.000        3272.79     
  1508.97        500.000        3273.01     
  1507.64        500.000        3285.79     
  1506.32        500.000        3274.29     
  1504.99        500.000        3274.66     
  1503.67        500.000        3275.37     
  1502.34        500.000        3275.65     
  1501.02        500.000        3276.12     
  1499.69        500.000        3267.16     
  1498.36        500.000        3259.76     
  1497.04        500.000        3260.79     
  1495.71        500.000        3260.88     
  1494.39        500.000        3262.44     
  1493.06        500.000        3262.80     
  1491.74        500.000        3263.61     
  1490.41        500.000        3264.49     
  1489.09        500.000        3265.38     
  1487.76        500.000        3265.81     
  1486.44        500.000        3266.62     
  1485.11        500.000        3267.18     
  1483.79        500.000        3272.20     
  1482.46        500.000        3268.63     
  1481.13        500.000        3270.05     
  1479.81        500.000        3270.02     
  1478.48        500.000        3271.61     
  1477.16        500.000        3270.79     
  1475.83        500.000        3273.07     
  1474.51        500.000        3277.20     
  1473.18        500.000        3274.33     
  1471.86        500.000        3275.30     
  1470.53        500.000        3274.94     
  1469.21        500.000        3260.56     
  1467.88        500.000        3260.46     
  1466.55        500.000        3264.06     
  1465.23        500.000        3265.72     
  1463.90        500.000        3266.97     
  1462.58        500.000        3267.93     
  1461.25        500.000        3269.00     
  1459.93        500.000        3269.86     
  1458.60        500.000        3270.91     
  1457.28        500.000        3272.18     
  1455.95        500.000        3273.15     
  1454.63        500.000        3273.99     
  1453.30        500.000        3275.18     
  1451.97        500.000        3276.19     
  1450.65        500.000        3277.21     
  1449.32        500.000        3278.22     
  1448.00        500.000        3279.81     
  1446.67        500.000        3280.58     
  1445.35        500.000        3281.32     
  1444.02        500.000        3282.55     
  1442.70        500.000        3283.48     
  1441.37        500.000        3284.52     
  1440.05        500.000        3285.55     
  1438.72        500.000        3286.75     
  1437.39        500.000        3287.77     
  1436.07        500.000        3288.91     
  1434.74        500.000        3290.01     
  1433.42        500.000        3291.12     
  1432.09        500.000        3292.76     
  1430.77        500.000        3293.71     
  1429.44        500.000        3294.29     
  1428.12        500.000        3295.79     
  1426.79        500.000        3296.41     
  1425.47        500.000        3297.47     
  1424.14        500.000        3298.68     
  1422.81        500.000        3300.04     
  1421.49        500.000        3300.68     
  1420.16        500.000        3302.36     
  1418.84        500.000        3303.18     
  1417.51        500.000        3304.39     
  1416.19        500.000        3305.40     
  1414.86        500.000        3158.09     
  1413.54        500.000        3125.39     
  1412.21        500.000        3125.57     
  1410.89        500.000        3126.89     
  1409.56        500.000        3128.02     
  1408.24        500.000        3129.87     
  1406.91        500.000        3131.16     
  1405.58        500.000        3132.40     
  1404.26        500.000        3133.85     
  1402.93        500.000        3135.16     
  1401.61        500.000        3136.47     
  1400.28        500.000        3137.73     
  1398.96        500.000        3139.20     
  1397.63        500.000        3140.55     
  1396.31        500.000        3141.96     
  1394.98        500.000        3143.31     
  1393.66        500.000        3144.61     
  1392.33        500.000        3145.99     
  1391.00        500.000        3147.48     
  1389.68        500.000        3148.70     
  1388.35        500.000        3150.22     
  1387.03        500.000        3151.44     
  1385.70        500.000        3152.97     
  1384.38        500.000        3154.35     
  1383.05        500.000        3155.80     
  1381.73        500.000        3156.89     
  1380.40        500.000        3158.52     
  1379.08        500.000        3159.74     
  1377.75        500.000        3160.90     
  1376.42        500.000        3162.45     
  1375.10        500.000        3164.25     
  1373.77        500.000        3165.45     
  1372.45        500.000        3166.71     
  1371.12        500.000        3168.14     
  1369.80        500.000        3169.60     
  1368.47        500.000        3170.87     
  1367.15        500.000        3172.38     
  1365.82        500.000        3173.89     
  1364.50        500.000        3175.10     
  1363.17        500.000        3176.86     
  1361.84        500.000        3178.21     
  1360.52        500.000        3179.56     
  1359.19        500.000        3180.73     
  1357.87        500.000        3182.63     
  1356.54        500.000        3183.74     
  1355.22        500.000        3185.06     
  1353.89        500.000        3186.56     
  1352.57        500.000        3188.20     
  1351.24        500.000        3189.55     
  1349.92        500.000        3190.83     
  1348.59        500.000        3192.37     
  1347.26        500.000        3193.61     
  1345.94        500.000        3195.03     
  1344.61        500.000        3196.50     
  1343.29        500.000        3197.77     
  1341.96        500.000        3199.49     
  1340.64        500.000        3200.66     
  1339.31        500.000        3201.98     
  1337.99        500.000        3203.53     
  1336.66        500.000        3205.00     
  1335.34        500.000        3206.23     
  1334.01        500.000        3208.01     
  1332.69        500.000        3209.24     
  1331.36        500.000        3210.57     
  1330.03        500.000        3211.96     
  1328.71        500.000        3213.41     
  1327.38        500.000        3215.06     
  1326.06        500.000        3216.15     
  1324.73        500.000        3217.63     
  1323.41        500.000        3218.91     
  1322.08        500.000        3220.20     
  1320.76        500.000        3221.67     
  1319.43        500.000        3223.03     
  1318.11        500.000        3224.51     
  1316.78        500.000        3225.79     
  1315.45        500.000        3227.08     
  1314.13        500.000        3228.52     
  1312.80        500.000        3229.81     
  1311.48        500.000        3230.87     
  1310.15        500.000        3232.61     
  1308.83        500.000        3233.85     
  1307.50        500.000        3234.96     
  1306.18        500.000        3236.29     
  1304.85        500.000        3237.49     
  1303.53        500.000        3239.01     
  1302.20        500.000        3240.24     
  1300.87        500.000        3241.44     
  1299.55        500.000        3242.50     
  1298.22        500.000        3281.40     
  1296.90        500.000        3287.90     
  1295.57        500.000        3288.47     
  1294.25        500.000        3319.77     
  1292.92        500.000        3324.03     
  1291.60        500.000        3331.42     
  1290.27        500.000        3330.30     
  1288.95        500.000        3330.48     
  1287.62        500.000        3331.43     
  1286.29        500.000        3331.80     
  1284.97        500.000        3335.33     
  1283.64        500.000        3332.11     
  1282.32        500.000        3332.45     
  1280.99        500.000        3332.11     
  1279.67        500.000        3333.49     
  1278.34        500.000        3332.97     
  1277.02        500.000        2829.45     
  1275.69        500.000        2829.61     
  1274.37        500.000        2832.79     
  1273.04        500.000        2834.17     
  1271.71        500.000        2836.45     
  1270.39        500.000        2838.34     
  1269.06        500.000        2840.73     
  1267.74        500.000        2842.74     
  1266.41        500.000        2844.87     
  1265.09        500.000        2846.32     
  1263.76        500.000        2843.51     
  1262.44        500.000        2854.01     
  1261.11        500.000        2851.63     
  1259.79        500.000        2852.75     
  1258.46        500.000        2854.39     
  1257.14        500.000        2855.65     
  1255.81        500.000        2856.80     
  1254.48        500.000        2857.62     
  1253.16        500.000        2859.06     
  1251.83        500.000        2860.01     
  1250.51        500.000        2861.01     
  1249.18        500.000        2861.79     
  1247.86        500.000        2862.63     
  1246.53        500.000        2863.23     
  1245.21        500.000        2864.06     
  1243.88        500.000        2864.18     
  1242.56        500.000        2865.28     
  1241.23        500.000        2865.68     
  1239.90        500.000        2865.87     
  1238.58        500.000        2866.27     
  1237.25        500.000        2866.67     
  1235.93        500.000        2866.95     
  1234.60        500.000        2867.11     
  1233.28        500.000        2867.20     
  1231.95        500.000        2867.49     
  1230.63        500.000        2868.25     
  1229.30        500.000        2868.88     
  1227.98        500.000        2867.37     
  1226.65        500.000        2853.93     
  1225.32        500.000        2954.51     
  1224.00        500.000        2789.75     
  1222.67        500.000        2932.47     
  1221.35        500.000        2806.01     
  1220.02        500.000        2951.78     
  1218.70        500.000        2884.19     
  1217.37        500.000        2897.40     
  1216.05        500.000        2844.98     
  1214.72        500.000        2711.87     
  1213.40        500.000        2595.24     
  1212.07        500.000        2689.87     
  1210.74        500.000        2777.38     
  1209.42        500.000        2595.94     
  1208.09        500.000        3572.79     
  1206.77        500.000        2717.60     
  1205.44        500.000        2655.29     
  1204.12        500.000        3105.11     
  1202.79        500.000        2676.79     
  1201.47        500.000        2670.86     
  1200.14        500.000        2673.30     
  1198.82        500.000        2655.88     
  1197.49        500.000        2638.61     
  1196.16        500.000        2675.32     
  1194.84        500.000        2668.19     
  1193.51        500.000        2411.67     
  1192.19        500.000        2411.76     
  1190.86        500.000        2411.84     
  1189.54        500.000        2635.72     
  1188.21        500.000        2635.63     
  1186.89        500.000        2635.77     
  1185.56        500.000        2635.75     
  1184.24        500.000        2635.81     
  1182.91        500.000        2635.87     
  1181.59        500.000        2635.94     
  1180.26        500.000        2636.00     
  1178.93        500.000        2636.05     
  1177.61        500.000        2636.10     
  1176.28        500.000        2636.16     
  1174.96        500.000        2636.23     
  1173.63        500.000        2636.29     
  1172.31        500.000        2636.35     
  1170.98        500.000        2636.41     
  1169.66        500.000        2636.47     
  1168.33        500.000        2636.53     
  1167.01        500.000        2636.58     
  1165.68        500.000        2636.64     
  1164.35        500.000        2636.70     
  1163.03        500.000        2636.76     
  1161.70        500.000        2636.82     
  1160.38        500.000        2636.88     
  1159.05        500.000        2637.03     
  1157.73        500.000        2637.09     
  1156.40        500.000        2637.04     
  1155.08        500.000        2637.19     
  1153.75        500.000        2637.25     
  1152.43        500.000        2637.31     
  1151.10        500.000        2637.36     
  1149.77        500.000        2637.33     
  1148.45        500.000        2637.38     
  1147.12        500.000        2637.44     
  1145.80        500.000        2637.50     
  1144.47        500.000        2637.57     
  1143.15        500.000        2637.61     
  1141.82        500.000        2637.68     
  1140.50        500.000        2637.73     
  1139.17        500.000        2637.82     
  1137.85        500.000        2637.85     
  1136.52        500.000        2637.91     
  1135.19        500.000        2637.99     
  1133.87        500.000        2638.03     
  1132.54        500.000        2638.09     
  1131.22        500.000        2638.17     
  1129.89        500.000        2638.22     
  1128.57        500.000        2638.28     
  1127.24        500.000        2638.34     
  1125.92        500.000        2638.39     
  1124.59        500.000        2638.45     
  1123.27        500.000        2638.47     
  1121.94        500.000        2638.58     
  1120.61        500.000        2638.63     
  1119.29        500.000        2638.70     
  1117.96        500.000        2638.75     
  1116.64        500.000        2638.78     
  1115.31        500.000        2638.87     
  1113.99        500.000        2638.92     
  1112.66        500.000        2638.98     
  1111.34        500.000        2639.05     
  1110.01        500.000        2639.01     
  1108.69        500.000        2638.33     
  1107.36        500.000        2639.20     
  1106.04        500.000        2639.27     
  1104.71        500.000        2639.31     
  1103.38        500.000        2639.37     
  1102.06        500.000        2639.43     
  1100.73        500.000        2639.49     
  1099.41        500.000        2637.52     
  1098.08        500.000        2637.16     
  1096.76        500.000        2637.19     
  1095.43        500.000        2637.19     
  1094.11        500.000        2637.31     
  1092.78        500.000        2637.15     
  1091.46        500.000        2637.22     
  1090.13        500.000        2637.17     
  1088.80        500.000        2637.22     
  1087.48        500.000        2637.23     
  1086.15        500.000        2637.19     
  1084.83        500.000        2637.20     
  1083.50        500.000        2637.24     
  1082.18        500.000        2637.26     
  1080.85        500.000        2637.28     
  1079.53        500.000        2637.30     
  1078.20        500.000        2637.33     
  1076.88        500.000        2637.35     
  1075.55        500.000        2637.34     
  1074.22        500.000        2637.38     
  1072.90        500.000        2637.41     
  1071.57        500.000        2637.44     
  1070.25        500.000        2637.41     
  1068.92        500.000        2637.50     
  1067.60        500.000        2637.53     
  1066.27        500.000        2637.57     
  1064.95        500.000        2637.60     
  1063.62        500.000        2637.62     
  1062.30        500.000        2637.65     
  1060.97        500.000        2637.68     
  1059.64        500.000        2637.72     
  1058.32        500.000        2637.75     
  1056.99        500.000        2637.75     
  1055.67        500.000        2637.82     
  1054.34        500.000        2637.85     
  1053.02        500.000        2637.89     
  1051.69        500.000        2637.92     
  1050.37        500.000        2637.96     
  1049.04        500.000        2638.00     
  1047.72        500.000        2638.04     
  1046.39        500.000        2638.08     
  1045.06        500.000        2638.14     
  1043.74        500.000        2638.16     
  1042.41        500.000        2638.20     
  1041.09        500.000        2638.25     
  1039.76        500.000        2638.29     
  1038.44        500.000        2638.32     
  1037.11        500.000        2638.36     
  1035.79        500.000        2638.40     
  1034.46        500.000        2638.46     
  1033.14        500.000        2638.49     
  1031.81        500.000        2638.49     
  1030.49        500.000        2638.58     
  1029.16        500.000        2638.62     
  1027.83        500.000        2638.66     
  1026.51        500.000        2638.71     
  1025.18        500.000        2638.75     
  1023.86        500.000        2638.79     
  1022.53        500.000        2638.85     
  1021.21        500.000        2638.86     
  1019.88        500.000        2638.99     
  1018.56        500.000        2639.05     
  1017.23        500.000        2639.09     
  1015.91        500.000        2639.04     
  1014.58        500.000        2639.10     
  1013.25        500.000        2639.15     
  1011.93        500.000        2639.16     
  1010.60        500.000        2639.11     
  1009.28        500.000        2639.16     
  1007.95        500.000        2639.29     
  1006.63        500.000        2639.26     
  1005.30        500.000        2639.31     
  1003.98        500.000        2639.36     
  1002.65        500.000        2639.40     
  1001.33        500.000        2639.45     
  1000.00        500.000        2639.50     
