|6.6.6
Archiving\03_Data\DeqLP/QFM_m3.75/K22/K22_6.tab                       
           1
T(K)    
  0.000000000000000E+000
  0.000000000000000E+000
           0
           3
T(K)           P(bar)         rho,kg/m3     
  2000.00        500.000        8099.88     
  1996.79        500.000        8101.72     
  1993.59        500.000        8103.55     
  1990.38        500.000        8105.38     
  1987.18        500.000        8107.21     
  1983.97        500.000        8109.03     
  1980.77        500.000        8110.86     
  1977.56        500.000        8112.68     
  1974.36        500.000        8114.50     
  1971.15        500.000        8116.32     
  1967.95        500.000        8118.14     
  1964.74        500.000        8119.96     
  1961.54        500.000        8121.78     
  1958.33        500.000        8123.59     
  1955.13        500.000        8125.41     
  1951.92        500.000        8127.22     
  1948.72        500.000        8129.03     
  1945.51        500.000        3253.23     
  1942.31        500.000        3174.12     
  1939.10        500.000        3156.94     
  1935.90        500.000        3149.34     
  1932.69        500.000        3147.08     
  1929.49        500.000        3145.75     
  1926.28        500.000        3144.94     
  1923.08        500.000        3144.46     
  1919.87        500.000        3146.06     
  1916.67        500.000        3147.45     
  1913.46        500.000        3148.69     
  1910.26        500.000        3149.80     
  1907.05        500.000        3150.82     
  1903.85        500.000        3151.76     
  1900.64        500.000        3152.65     
  1897.44        500.000        3153.48     
  1894.23        500.000        3155.00     
  1891.03        500.000        3157.34     
  1887.82        500.000        3159.91     
  1884.62        500.000        3162.29     
  1881.41        500.000        3164.92     
  1878.21        500.000        3167.38     
  1875.00        500.000        3169.69     
  1871.79        500.000        3171.87     
  1868.59        500.000        3174.36     
  1865.38        500.000        3176.73     
  1862.18        500.000        3178.97     
  1858.97        500.000        3181.12     
  1855.77        500.000        3183.16     
  1852.56        500.000        3185.12     
  1849.36        500.000        3186.99     
  1846.15        500.000        3188.79     
  1842.95        500.000        3190.99     
  1839.74        500.000        3193.12     
  1836.54        500.000        3195.17     
  1833.33        500.000        3197.14     
  1830.13        500.000        3199.05     
  1826.92        500.000        3200.90     
  1823.72        500.000        3202.69     
  1820.51        500.000        3204.42     
  1817.31        500.000        3206.42     
  1814.10        500.000        3208.36     
  1810.90        500.000        3210.25     
  1807.69        500.000        3212.09     
  1804.49        500.000        3213.88     
  1801.28        500.000        3215.62     
  1798.08        500.000        3217.32     
  1794.87        500.000        3218.97     
  1791.67        500.000        3220.77     
  1788.46        500.000        3222.52     
  1785.26        500.000        3224.24     
  1782.05        500.000        3225.92     
  1778.85        500.000        3227.56     
  1775.64        500.000        3229.17     
  1772.44        500.000        3230.74     
  1769.23        500.000        3232.28     
  1766.03        500.000        3233.90     
  1762.82        500.000        3235.48     
  1759.62        500.000        3237.03     
  1756.41        500.000        3238.56     
  1753.21        500.000        3240.06     
  1750.00        500.000        3241.53     
  1746.79        500.000        3242.98     
  1743.59        500.000        3244.41     
  1740.38        500.000        3245.86     
  1737.18        500.000        3247.29     
  1733.97        500.000        3248.69     
  1730.77        500.000        3250.08     
  1727.56        500.000        3251.44     
  1724.36        500.000        3252.79     
  1721.15        500.000        3254.11     
  1717.95        500.000        3255.42     
  1714.74        500.000        3256.70     
  1711.54        500.000        3257.95     
  1708.33        500.000        3259.20     
  1705.13        500.000        3260.42     
  1701.92        500.000        3261.63     
  1698.72        500.000        3262.83     
  1695.51        500.000        3264.01     
  1692.31        500.000        3265.18     
  1689.10        500.000        3266.29     
  1685.90        500.000        3267.38     
  1682.69        500.000        3268.46     
  1679.49        500.000        3269.53     
  1676.28        500.000        3270.59     
  1673.08        500.000        3271.64     
  1669.87        500.000        3272.68     
  1666.67        500.000        3273.71     
  1663.46        500.000        3274.66     
  1660.26        500.000        3275.61     
  1657.05        500.000        3276.55     
  1653.85        500.000        3277.49     
  1650.64        500.000        3278.41     
  1647.44        500.000        3279.33     
  1644.23        500.000        3280.25     
  1641.03        500.000        3281.15     
  1637.82        500.000        3282.01     
  1634.62        500.000        3282.86     
  1631.41        500.000        3283.70     
  1628.21        500.000        3284.54     
  1625.00        500.000        3285.34     
  1621.79        500.000        3286.13     
  1618.59        500.000        3286.92     
  1615.38        500.000        3285.93     
  1612.18        500.000        3285.30     
  1608.97        500.000        3284.71     
  1605.77        500.000        3284.15     
  1602.56        500.000        3283.62     
  1599.36        500.000        3283.12     
  1596.15        500.000        3282.64     
  1592.95        500.000        3282.20     
  1589.74        500.000        3281.77     
  1586.54        500.000        3281.62     
  1583.33        500.000        3281.48     
  1580.13        500.000        3281.35     
  1576.92        500.000        3281.23     
  1573.72        500.000        3281.12     
  1570.51        500.000        3281.03     
  1567.31        500.000        3280.94     
  1564.10        500.000        3280.87     
  1560.90        500.000        3280.93     
  1557.69        500.000        3280.99     
  1554.49        500.000        3281.05     
  1551.28        500.000        3281.13     
  1548.08        500.000        3281.21     
  1544.87        500.000        3281.29     
  1541.67        500.000        3281.38     
  1538.46        500.000        3281.47     
  1535.26        500.000        3281.63     
  1532.05        500.000        3281.80     
  1528.85        500.000        3281.96     
  1525.64        500.000        3282.13     
  1522.44        500.000        3282.31     
  1519.23        500.000        3282.48     
  1516.03        500.000        3282.66     
  1512.82        500.000        3282.85     
  1509.62        500.000        3283.06     
  1506.41        500.000        3283.28     
  1503.21        500.000        3283.50     
  1500.00        500.000        3283.72     
  1496.79        500.000        3283.95     
  1493.59        500.000        3284.17     
  1490.38        500.000        3284.41     
  1487.18        500.000        3284.64     
  1483.97        500.000        3284.90     
  1480.77        500.000        3285.15     
  1477.56        500.000        3285.41     
  1474.36        500.000        3285.72     
  1471.15        500.000        3286.07     
  1467.95        500.000        3286.42     
  1464.74        500.000        3286.77     
  1461.54        500.000        3287.11     
  1458.33        500.000        3287.50     
  1455.13        500.000        3287.88     
  1451.92        500.000        3288.24     
  1448.72        500.000        3288.59     
  1445.51        500.000        3289.03     
  1442.31        500.000        3289.47     
  1439.10        500.000        3289.91     
  1435.90        500.000        3290.07     
  1432.69        500.000        3290.51     
  1429.49        500.000        3290.84     
  1426.28        500.000        3290.04     
  1423.08        500.000        3289.29     
  1419.87        500.000        3289.73     
  1416.67        500.000        3290.16     
  1413.46        500.000        3290.60     
  1410.26        500.000        3287.10     
  1407.05        500.000        3287.53     
  1403.85        500.000        3287.97     
  1400.64        500.000        3288.40     
  1397.44        500.000        3288.84     
  1394.23        500.000        3289.27     
  1391.03        500.000        3289.70     
  1387.82        500.000        3290.14     
  1384.62        500.000        3284.87     
  1381.41        500.000        3285.30     
  1378.21        500.000        3285.73     
  1375.00        500.000        3286.16     
  1371.79        500.000        3286.59     
  1368.59        500.000        3287.02     
  1365.38        500.000        3287.45     
  1362.18        500.000        3287.87     
  1358.97        500.000        3283.97     
  1355.77        500.000        3284.40     
  1352.56        500.000        3284.82     
  1349.36        500.000        3285.25     
  1346.15        500.000        3285.67     
  1342.95        500.000        3286.09     
  1339.74        500.000        3286.52     
  1336.54        500.000        3286.94     
  1333.33        500.000        3283.75     
  1330.13        500.000        3284.17     
  1326.92        500.000        3284.59     
  1323.72        500.000        3285.01     
  1320.51        500.000        3285.43     
  1317.31        500.000        3285.85     
  1314.10        500.000        3286.27     
  1310.90        500.000        3286.69     
  1307.69        500.000        3284.00     
  1304.49        500.000        3284.42     
  1301.28        500.000        3284.84     
  1298.08        500.000        3285.25     
  1294.87        500.000        3284.28     
  1291.67        500.000        3284.69     
  1288.46        500.000        3284.45     
  1285.26        500.000        3284.55     
  1282.05        500.000        3275.33     
  1278.85        500.000        3275.74     
  1275.64        500.000        3276.15     
  1272.44        500.000        3276.56     
  1269.23        500.000        3276.98     
  1266.03        500.000        3277.39     
  1262.82        500.000        3277.80     
  1259.62        500.000        3278.21     
  1256.41        500.000        3278.24     
  1253.21        500.000        3278.65     
  1250.00        500.000        3279.05     
  1246.79        500.000        3279.46     
  1243.59        500.000        3279.87     
  1240.38        500.000        3280.28     
  1237.18        500.000        3280.69     
  1233.97        500.000        3281.10     
  1230.77        500.000        3281.16     
  1227.56        500.000        3281.56     
  1224.36        500.000        3281.97     
  1221.15        500.000        3282.38     
  1217.95        500.000        3282.78     
  1214.74        500.000        3283.19     
  1211.54        500.000        3283.60     
  1208.33        500.000        3284.00     
  1205.13        500.000        3284.09     
  1201.92        500.000        3284.49     
  1198.72        500.000        3284.90     
  1195.51        500.000        3285.30     
  1192.31        500.000        3285.70     
  1189.10        500.000        3286.11     
  1185.90        500.000        3286.51     
  1182.69        500.000        3286.92     
  1179.49        500.000        3287.03     
  1176.28        500.000        3287.43     
  1173.08        500.000        3287.84     
  1169.87        500.000        3288.24     
  1166.67        500.000        3288.64     
  1163.46        500.000        3289.04     
  1160.26        500.000        3289.44     
  1157.05        500.000        3289.85     
  1153.85        500.000        3289.98     
  1150.64        500.000        3290.38     
  1147.44        500.000        3290.79     
  1144.23        500.000        3291.19     
  1141.03        500.000        3291.59     
  1137.82        500.000        3291.98     
  1134.62        500.000        3292.38     
  1131.41        500.000        3292.78     
  1128.21        500.000        3292.95     
  1125.00        500.000        3293.35     
  1121.79        500.000        3293.75     
  1118.59        500.000        3294.14     
  1115.38        500.000        3294.54     
  1112.18        500.000        3294.94     
  1108.97        500.000        3295.34     
  1105.77        500.000        3295.73     
  1102.56        500.000        3295.93     
  1099.36        500.000        3296.33     
  1096.15        500.000        3296.72     
  1092.95        500.000        3297.12     
  1089.74        500.000        3297.51     
  1086.54        500.000        3297.91     
  1083.33        500.000        3298.30     
  1080.13        500.000        3298.70     
  1076.92        500.000        3298.93     
  1073.72        500.000        3299.32     
  1070.51        500.000        3299.71     
  1067.31        500.000        3300.11     
  1064.10        500.000        3300.50     
  1060.90        500.000        3300.89     
  1057.69        500.000        3301.29     
  1054.49        500.000        3301.68     
  1051.28        500.000        3301.94     
  1048.08        500.000        3302.33     
  1044.87        500.000        3302.72     
  1041.67        500.000        3303.12     
  1038.46        500.000        3303.51     
  1035.26        500.000        3303.90     
  1032.05        500.000        3304.29     
  1028.85        500.000        3304.68     
  1025.64        500.000        3304.97     
  1022.44        500.000        3305.36     
  1019.23        500.000        3305.75     
  1016.03        500.000        3306.14     
  1012.82        500.000        3306.53     
  1009.62        500.000        3306.92     
  1006.41        500.000        3307.31     
  1003.21        500.000        3307.70     
  1000.00        500.000        3308.03     
