|6.6.6
Archiving\03_Data\eq/QFM_m5/WD94/WD94_6.tab                               
           1
T(K)    
  0.000000000000000E+000
  0.000000000000000E+000
           0
           3
T(K)           P(bar)         rho,kg/m3     
  2000.00        2500.00        6461.51     
  1996.79        2500.00        6465.17     
  1993.59        2500.00        6468.82     
  1990.38        2500.00        6472.45     
  1987.18        2500.00        6476.07     
  1983.97        2500.00        6479.67     
  1980.77        2500.00        6483.26     
  1977.56        2500.00        6486.83     
  1974.36        2500.00        6490.39     
  1971.15        2500.00        6493.87     
  1967.95        2500.00        6497.33     
  1964.74        2500.00        6500.79     
  1961.54        2500.00        6504.22     
  1958.33        2500.00        6507.65     
  1955.13        2500.00        6511.06     
  1951.92        2500.00        6514.46     
  1948.72        2500.00        6517.85     
  1945.51        2500.00        6521.16     
  1942.31        2500.00        6524.47     
  1939.10        2500.00        6527.76     
  1935.90        2500.00        6531.03     
  1932.69        2500.00        6534.30     
  1929.49        2500.00        6537.56     
  1926.28        2500.00        6540.80     
  1923.08        2500.00        6544.04     
  1919.87        2500.00        6547.20     
  1916.67        2500.00        6550.35     
  1913.46        2500.00        6553.50     
  1910.26        2500.00        6556.63     
  1907.05        2500.00        6559.75     
  1903.85        2500.00        6562.87     
  1900.64        2500.00        6565.97     
  1897.44        2500.00        6569.06     
  1894.23        2500.00        6572.11     
  1891.03        2500.00        6575.15     
  1887.82        2500.00        6253.10     
  1884.62        2500.00        5846.39     
  1881.41        2500.00        5540.94     
  1878.21        2500.00        5297.44     
  1875.00        2500.00        5098.81     
  1871.79        2500.00        4933.71     
  1868.59        2500.00        4800.76     
  1865.38        2500.00        4686.18     
  1862.18        2500.00        4586.42     
  1858.97        2500.00        4498.79     
  1855.77        2500.00        4421.22     
  1852.56        2500.00        4352.06     
  1849.36        2500.00        4290.04     
  1846.15        2500.00        4234.11     
  1842.95        2500.00        4185.18     
  1839.74        2500.00        4140.48     
  1836.54        2500.00        4099.48     
  1833.33        2500.00        4061.75     
  1830.13        2500.00        4027.35     
  1826.92        2500.00        3995.45     
  1823.72        2500.00        3965.73     
  1820.51        2500.00        3938.38     
  1817.31        2500.00        3912.92     
  1814.10        2500.00        3889.10     
  1810.90        2500.00        3866.76     
  1807.69        2500.00        3845.77     
  1804.49        2500.00        3826.02     
  1801.28        2500.00        3807.40     
  1798.08        2500.00        3789.82     
  1794.87        2500.00        3773.19     
  1791.67        2500.00        3757.26     
  1788.46        2500.00        3742.16     
  1785.26        2500.00        3727.82     
  1782.05        2500.00        3714.18     
  1778.85        2500.00        3701.21     
  1775.64        2500.00        3688.85     
  1772.44        2500.00        3677.06     
  1769.23        2500.00        3665.80     
  1766.03        2500.00        3654.67     
  1762.82        2500.00        3644.03     
  1759.62        2500.00        3633.86     
  1756.41        2500.00        3624.12     
  1753.21        2500.00        3614.78     
  1750.00        2500.00        3605.83     
  1746.79        2500.00        3597.25     
  1743.59        2500.00        3589.00     
  1740.38        2500.00        3580.79     
  1737.18        2500.00        3572.90     
  1733.97        2500.00        3565.31     
  1730.77        2500.00        3558.02     
  1727.56        2500.00        3550.99     
  1724.36        2500.00        3544.22     
  1721.15        2500.00        3537.70     
  1717.95        2500.00        3531.41     
  1714.74        2500.00        3525.10     
  1711.54        2500.00        3519.01     
  1708.33        2500.00        3513.14     
  1705.13        2500.00        3507.46     
  1701.92        2500.00        3501.98     
  1698.72        2500.00        3496.68     
  1695.51        2500.00        3491.56     
  1692.31        2500.00        3486.61     
  1689.10        2500.00        3481.73     
  1685.90        2500.00        3477.00     
  1682.69        2500.00        3472.43     
  1679.49        2500.00        3467.99     
  1676.28        2500.00        3463.70     
  1673.08        2500.00        3459.53     
  1669.87        2500.00        3455.49     
  1666.67        2500.00        3451.57     
  1663.46        2500.00        3444.55     
  1660.26        2500.00        3437.49     
  1657.05        2500.00        3431.34     
  1653.85        2500.00        3425.54     
  1650.64        2500.00        3420.78     
  1647.44        2500.00        3416.25     
  1644.23        2500.00        3411.94     
  1641.03        2500.00        3407.83     
  1637.82        2500.00        3404.79     
  1634.62        2500.00        3401.86     
  1631.41        2500.00        3399.04     
  1628.21        2500.00        3396.32     
  1625.00        2500.00        3393.70     
  1621.79        2500.00        3391.18     
  1618.59        2500.00        3388.74     
  1615.38        2500.00        3386.38     
  1612.18        2500.00        3384.70     
  1608.97        2500.00        3383.07     
  1605.77        2500.00        3381.48     
  1602.56        2500.00        3379.93     
  1599.36        2500.00        3378.43     
  1596.15        2500.00        3376.96     
  1592.95        2500.00        3375.54     
  1589.74        2500.00        3374.15     
  1586.54        2500.00        3373.09     
  1583.33        2500.00        3372.05     
  1580.13        2500.00        3371.04     
  1576.92        2500.00        3370.05     
  1573.72        2500.00        3369.09     
  1570.51        2500.00        3368.14     
  1567.31        2500.00        3367.21     
  1564.10        2500.00        3366.31     
  1560.90        2500.00        3365.57     
  1557.69        2500.00        3364.85     
  1554.49        2500.00        3364.14     
  1551.28        2500.00        3363.45     
  1548.08        2500.00        3362.77     
  1544.87        2500.00        3362.10     
  1541.67        2500.00        3361.45     
  1538.46        2500.00        3360.81     
  1535.26        2500.00        3360.24     
  1532.05        2500.00        3359.68     
  1528.85        2500.00        3359.13     
  1525.64        2500.00        3358.59     
  1522.44        2500.00        3358.06     
  1519.23        2500.00        3357.54     
  1516.03        2500.00        3357.03     
  1512.82        2500.00        3356.53     
  1509.62        2500.00        3356.05     
  1506.41        2500.00        3355.58     
  1503.21        2500.00        3355.11     
  1500.00        2500.00        3354.65     
  1496.79        2500.00        3354.20     
  1493.59        2500.00        3353.75     
  1490.38        2500.00        3353.31     
  1487.18        2500.00        3353.11     
  1483.97        2500.00        3353.39     
  1480.77        2500.00        3353.68     
  1477.56        2500.00        3353.97     
  1474.36        2500.00        3354.25     
  1471.15        2500.00        3354.55     
  1467.95        2500.00        3354.86     
  1464.74        2500.00        3355.16     
  1461.54        2500.00        3355.47     
  1458.33        2500.00        3355.83     
  1455.13        2500.00        3356.16     
  1451.92        2500.00        3356.61     
  1448.72        2500.00        3356.84     
  1445.51        2500.00        3357.28     
  1442.31        2500.00        3357.73     
  1439.10        2500.00        3358.17     
  1435.90        2500.00        3358.25     
  1432.69        2500.00        3358.69     
  1429.49        2500.00        3359.13     
  1426.28        2500.00        3359.58     
  1423.08        2500.00        3359.52     
  1419.87        2500.00        3359.96     
  1416.67        2500.00        3360.24     
  1413.46        2500.00        3360.58     
  1410.26        2500.00        3360.63     
  1407.05        2500.00        3361.07     
  1403.85        2500.00        3361.51     
  1400.64        2500.00        3361.95     
  1397.44        2500.00        3362.39     
  1394.23        2500.00        3362.83     
  1391.03        2500.00        3363.27     
  1387.82        2500.00        3363.70     
  1384.62        2500.00        3356.89     
  1381.41        2500.00        3357.33     
  1378.21        2500.00        3357.76     
  1375.00        2500.00        3358.20     
  1371.79        2500.00        3358.63     
  1368.59        2500.00        3359.06     
  1365.38        2500.00        3359.50     
  1362.18        2500.00        3359.93     
  1358.97        2500.00        3355.19     
  1355.77        2500.00        3355.62     
  1352.56        2500.00        3356.05     
  1349.36        2500.00        3356.48     
  1346.15        2500.00        3356.91     
  1342.95        2500.00        3357.34     
  1339.74        2500.00        3357.77     
  1336.54        2500.00        3358.20     
  1333.33        2500.00        3354.56     
  1330.13        2500.00        3354.98     
  1326.92        2500.00        3354.54     
  1323.72        2500.00        3354.52     
  1320.51        2500.00        3331.05     
  1317.31        2500.00        3321.77     
  1314.10        2500.00        3322.13     
  1310.90        2500.00        3322.54     
  1307.69        2500.00        3322.83     
  1304.49        2500.00        3323.24     
  1301.28        2500.00        3323.66     
  1298.08        2500.00        3324.07     
  1294.87        2500.00        3324.49     
  1291.67        2500.00        3324.90     
  1288.46        2500.00        3325.32     
  1285.26        2500.00        3325.73     
  1282.05        2500.00        3325.65     
  1278.85        2500.00        3326.07     
  1275.64        2500.00        3326.48     
  1272.44        2500.00        3326.89     
  1269.23        2500.00        3327.30     
  1266.03        2500.00        3327.72     
  1262.82        2500.00        3328.13     
  1259.62        2500.00        3328.54     
  1256.41        2500.00        3328.53     
  1253.21        2500.00        3328.95     
  1250.00        2500.00        3329.36     
  1246.79        2500.00        3329.77     
  1243.59        2500.00        3330.18     
  1240.38        2500.00        3330.59     
  1237.18        2500.00        3331.00     
  1233.97        2500.00        3331.41     
  1230.77        2500.00        3331.47     
  1227.56        2500.00        3331.88     
  1224.36        2500.00        3332.28     
  1221.15        2500.00        3332.69     
  1217.95        2500.00        3333.10     
  1214.74        2500.00        3333.51     
  1211.54        2500.00        3333.92     
  1208.33        2500.00        3334.32     
  1205.13        2500.00        3334.43     
  1201.92        2500.00        3334.84     
  1198.72        2500.00        3335.24     
  1195.51        2500.00        3335.65     
  1192.31        2500.00        3336.06     
  1189.10        2500.00        3336.46     
  1185.90        2500.00        3336.87     
  1182.69        2500.00        3337.27     
  1179.49        2500.00        3337.44     
  1176.28        2500.00        3337.84     
  1173.08        2500.00        3338.25     
  1169.87        2500.00        3338.65     
  1166.67        2500.00        3339.06     
  1163.46        2500.00        3339.46     
  1160.26        2500.00        3339.86     
  1157.05        2500.00        3340.27     
  1153.85        2500.00        3340.50     
  1150.64        2500.00        3340.90     
  1147.44        2500.00        3341.30     
  1144.23        2500.00        3341.70     
  1141.03        2500.00        3342.11     
  1137.82        2500.00        3342.51     
  1134.62        2500.00        3342.91     
  1131.41        2500.00        3343.31     
  1128.21        2500.00        3343.60     
  1125.00        2500.00        3344.00     
  1121.79        2500.00        3344.40     
  1118.59        2500.00        3344.80     
  1115.38        2500.00        3345.20     
  1112.18        2500.00        3345.60     
  1108.97        2500.00        3346.00     
  1105.77        2500.00        3346.40     
  1102.56        2500.00        3346.76     
  1099.36        2500.00        3347.16     
  1096.15        2500.00        3347.56     
  1092.95        2500.00        3347.96     
  1089.74        2500.00        3348.35     
  1086.54        2500.00        3348.75     
  1083.33        2500.00        3349.15     
  1080.13        2500.00        3349.55     
  1076.92        2500.00        3349.97     
  1073.72        2500.00        3350.37     
  1070.51        2500.00        3350.77     
  1067.31        2500.00        3351.16     
  1064.10        2500.00        3351.56     
  1060.90        2500.00        3351.95     
  1057.69        2500.00        3352.35     
  1054.49        2500.00        3352.74     
  1051.28        2500.00        3353.25     
  1048.08        2500.00        3353.65     
  1044.87        2500.00        3354.09     
  1041.67        2500.00        3354.50     
  1038.46        2500.00        3354.93     
  1035.26        2500.00        3355.32     
  1032.05        2500.00        3355.82     
  1028.85        2500.00        3356.28     
  1025.64        2500.00        3356.69     
  1022.44        2500.00        3357.08     
  1019.23        2500.00        3357.48     
  1016.03        2500.00        3357.87     
  1012.82        2500.00        3358.27     
  1009.62        2500.00        3358.67     
  1006.41        2500.00        3359.06     
  1003.21        2500.00        3359.46     
  1000.00        2500.00        3360.06     
