|6.6.6
Archiving\03_Data\DeqLP/QFM_m0.5/WD94/WD94_6.tab                          
           1
T(K)    
  0.000000000000000E+000
  0.000000000000000E+000
           0
           3
T(K)           P(bar)         rho,kg/m3     
  2000.00        500.000        2933.12     
  1996.79        500.000        2933.89     
  1993.59        500.000        2934.65     
  1990.38        500.000        2935.42     
  1987.18        500.000        2936.19     
  1983.97        500.000        2936.96     
  1980.77        500.000        2937.73     
  1977.56        500.000        2938.50     
  1974.36        500.000        2939.27     
  1971.15        500.000        2940.04     
  1967.95        500.000        2940.81     
  1964.74        500.000        2941.57     
  1961.54        500.000        2942.34     
  1958.33        500.000        2943.11     
  1955.13        500.000        2943.88     
  1951.92        500.000        2944.65     
  1948.72        500.000        2945.42     
  1945.51        500.000        2946.19     
  1942.31        500.000        2946.96     
  1939.10        500.000        2947.73     
  1935.90        500.000        2948.49     
  1932.69        500.000        2949.26     
  1929.49        500.000        2950.03     
  1926.28        500.000        2950.80     
  1923.08        500.000        2951.57     
  1919.87        500.000        2952.34     
  1916.67        500.000        2953.11     
  1913.46        500.000        2953.88     
  1910.26        500.000        2954.65     
  1907.05        500.000        2955.41     
  1903.85        500.000        2956.18     
  1900.64        500.000        3156.18     
  1897.44        500.000        3158.35     
  1894.23        500.000        3162.73     
  1891.03        500.000        3164.58     
  1887.82        500.000        3165.75     
  1884.62        500.000        3166.65     
  1881.41        500.000        3171.94     
  1878.21        500.000        3176.55     
  1875.00        500.000        3180.81     
  1871.79        500.000        3184.26     
  1868.59        500.000        3188.53     
  1865.38        500.000        3192.16     
  1862.18        500.000        3195.30     
  1858.97        500.000        3198.05     
  1855.77        500.000        3200.50     
  1852.56        500.000        3202.69     
  1849.36        500.000        3204.68     
  1846.15        500.000        3206.51     
  1842.95        500.000        3209.72     
  1839.74        500.000        3212.66     
  1836.54        500.000        3215.39     
  1833.33        500.000        3217.91     
  1830.13        500.000        3220.27     
  1826.92        500.000        3222.47     
  1823.72        500.000        3224.54     
  1820.51        500.000        3226.49     
  1817.31        500.000        3229.11     
  1814.10        500.000        3231.60     
  1810.90        500.000        3233.95     
  1807.69        500.000        3236.19     
  1804.49        500.000        3238.32     
  1801.28        500.000        3240.36     
  1798.08        500.000        3242.30     
  1794.87        500.000        3244.17     
  1791.67        500.000        3246.80     
  1788.46        500.000        3249.33     
  1785.26        500.000        3251.75     
  1782.05        500.000        3254.08     
  1778.85        500.000        3256.32     
  1775.64        500.000        3258.48     
  1772.44        500.000        3260.56     
  1769.23        500.000        3262.56     
  1766.03        500.000        3264.88     
  1762.82        500.000        3267.12     
  1759.62        500.000        3269.28     
  1756.41        500.000        3271.38     
  1753.21        500.000        3273.42     
  1750.00        500.000        3275.39     
  1746.79        500.000        3277.31     
  1743.59        500.000        3279.18     
  1740.38        500.000        3281.25     
  1737.18        500.000        3283.26     
  1733.97        500.000        3285.22     
  1730.77        500.000        3287.13     
  1727.56        500.000        3289.00     
  1724.36        500.000        3290.81     
  1721.15        500.000        3292.59     
  1717.95        500.000        3294.32     
  1714.74        500.000        3296.18     
  1711.54        500.000        3298.00     
  1708.33        500.000        3299.77     
  1705.13        500.000        3301.51     
  1701.92        500.000        3303.22     
  1698.72        500.000        3304.89     
  1695.51        500.000        3306.53     
  1692.31        500.000        3308.13     
  1689.10        500.000        3309.72     
  1685.90        500.000        3311.29     
  1682.69        500.000        3312.82     
  1679.49        500.000        3314.33     
  1676.28        500.000        3315.82     
  1673.08        500.000        3317.28     
  1669.87        500.000        3318.72     
  1666.67        500.000        3320.13     
  1663.46        500.000        3321.54     
  1660.26        500.000        3322.93     
  1657.05        500.000        3324.30     
  1653.85        500.000        3325.65     
  1650.64        500.000        3326.98     
  1647.44        500.000        3328.30     
  1644.23        500.000        3329.60     
  1641.03        500.000        3330.88     
  1637.82        500.000        3332.00     
  1634.62        500.000        3333.11     
  1631.41        500.000        3334.20     
  1628.21        500.000        3335.29     
  1625.00        500.000        3337.15     
  1621.79        500.000        3338.97     
  1618.59        500.000        3339.29     
  1615.38        500.000        3339.75     
  1612.18        500.000        3339.05     
  1608.97        500.000        3338.39     
  1605.77        500.000        3337.77     
  1602.56        500.000        3337.18     
  1599.36        500.000        3336.64     
  1596.15        500.000        3336.12     
  1592.95        500.000        3335.64     
  1589.74        500.000        3335.19     
  1586.54        500.000        3335.06     
  1583.33        500.000        3334.95     
  1580.13        500.000        3334.85     
  1576.92        500.000        3334.76     
  1573.72        500.000        3334.69     
  1570.51        500.000        3334.63     
  1567.31        500.000        3334.58     
  1564.10        500.000        3334.54     
  1560.90        500.000        3334.67     
  1557.69        500.000        3334.82     
  1554.49        500.000        3334.97     
  1551.28        500.000        3335.12     
  1548.08        500.000        3335.28     
  1544.87        500.000        3335.44     
  1541.67        500.000        3335.61     
  1538.46        500.000        3335.78     
  1535.26        500.000        3336.00     
  1532.05        500.000        3336.22     
  1528.85        500.000        3336.44     
  1525.64        500.000        3336.66     
  1522.44        500.000        3336.89     
  1519.23        500.000        3337.12     
  1516.03        500.000        3337.36     
  1512.82        500.000        3337.59     
  1509.62        500.000        3337.86     
  1506.41        500.000        3338.14     
  1503.21        500.000        3338.41     
  1500.00        500.000        3338.69     
  1496.79        500.000        3338.97     
  1493.59        500.000        3339.25     
  1490.38        500.000        3339.53     
  1487.18        500.000        3339.82     
  1483.97        500.000        3340.08     
  1480.77        500.000        3340.35     
  1477.56        500.000        3340.62     
  1474.36        500.000        3340.89     
  1471.15        500.000        3341.21     
  1467.95        500.000        3341.54     
  1464.74        500.000        3341.86     
  1461.54        500.000        3342.10     
  1458.33        500.000        3342.51     
  1455.13        500.000        3342.91     
  1451.92        500.000        3343.31     
  1448.72        500.000        3343.71     
  1445.51        500.000        3344.10     
  1442.31        500.000        3344.50     
  1439.10        500.000        3344.90     
  1435.90        500.000        3345.30     
  1432.69        500.000        3345.76     
  1429.49        500.000        3346.22     
  1426.28        500.000        3346.67     
  1423.08        500.000        3347.13     
  1419.87        500.000        3346.99     
  1416.67        500.000        3346.24     
  1413.46        500.000        3346.68     
  1410.26        500.000        3345.04     
  1407.05        500.000        3345.49     
  1403.85        500.000        3345.93     
  1400.64        500.000        3346.37     
  1397.44        500.000        3346.81     
  1394.23        500.000        3347.25     
  1391.03        500.000        3347.69     
  1387.82        500.000        3348.14     
  1384.62        500.000        3342.72     
  1381.41        500.000        3343.16     
  1378.21        500.000        3343.60     
  1375.00        500.000        3344.03     
  1371.79        500.000        3344.47     
  1368.59        500.000        3344.91     
  1365.38        500.000        3345.34     
  1362.18        500.000        3345.78     
  1358.97        500.000        3342.03     
  1355.77        500.000        3342.46     
  1352.56        500.000        3342.89     
  1349.36        500.000        3343.32     
  1346.15        500.000        3343.76     
  1342.95        500.000        3344.19     
  1339.74        500.000        3344.62     
  1336.54        500.000        3345.05     
  1333.33        500.000        3341.98     
  1330.13        500.000        3342.41     
  1326.92        500.000        3342.84     
  1323.72        500.000        3343.27     
  1320.51        500.000        3343.70     
  1317.31        500.000        3344.13     
  1314.10        500.000        3344.55     
  1310.90        500.000        3344.98     
  1307.69        500.000        3342.33     
  1304.49        500.000        3342.75     
  1301.28        500.000        3342.47     
  1298.08        500.000        3342.54     
  1294.87        500.000        3338.88     
  1291.67        500.000        3339.30     
  1288.46        500.000        3339.72     
  1285.26        500.000        3340.15     
  1282.05        500.000        3340.23     
  1278.85        500.000        3340.65     
  1275.64        500.000        3341.07     
  1272.44        500.000        3341.49     
  1269.23        500.000        3341.91     
  1266.03        500.000        3342.34     
  1262.82        500.000        3342.76     
  1259.62        500.000        3343.18     
  1256.41        500.000        3342.98     
  1253.21        500.000        3343.40     
  1250.00        500.000        3343.82     
  1246.79        500.000        3344.24     
  1243.59        500.000        3344.66     
  1240.38        500.000        3345.08     
  1237.18        500.000        3345.50     
  1233.97        500.000        3345.91     
  1230.77        500.000        3345.74     
  1227.56        500.000        3346.15     
  1224.36        500.000        3346.57     
  1221.15        500.000        3346.99     
  1217.95        500.000        3347.40     
  1214.74        500.000        3347.82     
  1211.54        500.000        3348.24     
  1208.33        500.000        3348.65     
  1205.13        500.000        3348.53     
  1201.92        500.000        3348.95     
  1198.72        500.000        3349.36     
  1195.51        500.000        3349.78     
  1192.31        500.000        3350.19     
  1189.10        500.000        3350.61     
  1185.90        500.000        3351.02     
  1182.69        500.000        3351.43     
  1179.49        500.000        3351.36     
  1176.28        500.000        3351.77     
  1173.08        500.000        3352.18     
  1169.87        500.000        3352.59     
  1166.67        500.000        3353.00     
  1163.46        500.000        3353.42     
  1160.26        500.000        3353.83     
  1157.05        500.000        3354.24     
  1153.85        500.000        3354.20     
  1150.64        500.000        3354.61     
  1147.44        500.000        3355.02     
  1144.23        500.000        3355.43     
  1141.03        500.000        3355.84     
  1137.82        500.000        3356.25     
  1134.62        500.000        3356.66     
  1131.41        500.000        3357.07     
  1128.21        500.000        3357.07     
  1125.00        500.000        3357.48     
  1121.79        500.000        3357.89     
  1118.59        500.000        3358.30     
  1115.38        500.000        3358.70     
  1112.18        500.000        3359.11     
  1108.97        500.000        3359.52     
  1105.77        500.000        3359.92     
  1102.56        500.000        3359.97     
  1099.36        500.000        3360.37     
  1096.15        500.000        3360.78     
  1092.95        500.000        3361.18     
  1089.74        500.000        3361.59     
  1086.54        500.000        3361.99     
  1083.33        500.000        3362.40     
  1080.13        500.000        3362.80     
  1076.92        500.000        3362.89     
  1073.72        500.000        3363.29     
  1070.51        500.000        3363.70     
  1067.31        500.000        3364.10     
  1064.10        500.000        3364.36     
  1060.90        500.000        3364.73     
  1057.69        500.000        3365.09     
  1054.49        500.000        3365.50     
  1051.28        500.000        3365.83     
  1048.08        500.000        3366.24     
  1044.87        500.000        3366.64     
  1041.67        500.000        3367.04     
  1038.46        500.000        3367.44     
  1035.26        500.000        3367.84     
  1032.05        500.000        3368.24     
  1028.85        500.000        3368.64     
  1025.64        500.000        3368.75     
  1022.44        500.000        3369.15     
  1019.23        500.000        3369.55     
  1016.03        500.000        3369.95     
  1012.82        500.000        3370.35     
  1009.62        500.000        3370.74     
  1006.41        500.000        3371.14     
  1003.21        500.000        3371.54     
  1000.00        500.000        3371.70     
