|6.6.6
Archiving\03_Data\frac/QFM_m4/Y98/Y98_6.tab                               
           1
T(K)    
  0.000000000000000E+000
  0.000000000000000E+000
           0
           3
T(K)           P(bar)         rho,kg/m3     
  2000.00        2500.00        3611.47     
  1997.49        2500.00        3611.84     
  1994.99        2500.00        3612.22     
  1992.48        2500.00        3612.59     
  1989.97        2500.00        3612.97     
  1987.47        2500.00        3613.34     
  1984.96        2500.00        3613.72     
  1982.46        2500.00        3614.09     
  1979.95        2500.00        3614.46     
  1977.44        2500.00        3614.84     
  1974.94        2500.00        3615.21     
  1972.43        2500.00        3615.58     
  1969.92        2500.00        3615.96     
  1967.42        2500.00        3616.33     
  1964.91        2500.00        3616.70     
  1962.41        2500.00        3617.08     
  1959.90        2500.00        3617.45     
  1957.39        2500.00        3617.82     
  1954.89        2500.00        3618.20     
  1952.38        2500.00        3618.57     
  1949.87        2500.00        3618.94     
  1947.37        2500.00        3619.31     
  1944.86        2500.00        3619.69     
  1942.36        2500.00        3620.06     
  1939.85        2500.00        3620.43     
  1937.34        2500.00        3620.80     
  1934.84        2500.00        3621.17     
  1932.33        2500.00        3621.54     
  1929.82        2500.00        3621.92     
  1927.32        2500.00        3622.29     
  1924.81        2500.00        3622.66     
  1922.31        2500.00        3623.03     
  1919.80        2500.00        3623.40     
  1917.29        2500.00        3623.77     
  1914.79        2500.00        3624.14     
  1912.28        2500.00        3624.51     
  1909.77        2500.00        3624.88     
  1907.27        2500.00        3625.25     
  1904.76        2500.00        3625.62     
  1902.26        2500.00        3625.99     
  1899.75        2500.00        3626.36     
  1897.24        2500.00        3626.73     
  1894.74        2500.00        3627.10     
  1892.23        2500.00        3627.47     
  1889.72        2500.00        3627.84     
  1887.22        2500.00        3628.21     
  1884.71        2500.00        3628.58     
  1882.21        2500.00        3628.95     
  1879.70        2500.00        3629.32     
  1877.19        2500.00        3629.69     
  1874.69        2500.00        3630.05     
  1872.18        2500.00        3630.42     
  1869.67        2500.00        3630.79     
  1867.17        2500.00        3631.16     
  1864.66        2500.00        3631.53     
  1862.16        2500.00        3631.90     
  1859.65        2500.00        3632.26     
  1857.14        2500.00        3632.63     
  1854.64        2500.00        3633.00     
  1852.13        2500.00        3633.37     
  1849.62        2500.00        3633.73     
  1847.12        2500.00        3634.10     
  1844.61        2500.00        3634.47     
  1842.11        2500.00        3634.84     
  1839.60        2500.00        3635.20     
  1837.09        2500.00        3635.57     
  1834.59        2500.00        3635.94     
  1832.08        2500.00        3636.30     
  1829.57        2500.00        3636.67     
  1827.07        2500.00        3637.03     
  1824.56        2500.00        3637.40     
  1822.06        2500.00        3637.77     
  1819.55        2500.00        3638.13     
  1817.04        2500.00        3638.50     
  1814.54        2500.00        3638.86     
  1812.03        2500.00        3639.23     
  1809.52        2500.00        3639.59     
  1807.02        2500.00        3639.96     
  1804.51        2500.00        3640.32     
  1802.01        2500.00        3640.69     
  1799.50        2500.00        3641.05     
  1796.99        2500.00        3641.42     
  1794.49        2500.00        3641.78     
  1791.98        2500.00        3642.15     
  1789.47        2500.00        3642.51     
  1786.97        2500.00        3642.88     
  1784.46        2500.00        3643.24     
  1781.95        2500.00        3643.61     
  1779.45        2500.00        3643.97     
  1776.94        2500.00        3644.33     
  1774.44        2500.00        3644.70     
  1771.93        2500.00        3645.06     
  1769.42        2500.00        3645.42     
  1766.92        2500.00        3645.79     
  1764.41        2500.00        3646.15     
  1761.90        2500.00        3646.51     
  1759.40        2500.00        3646.88     
  1756.89        2500.00        3647.24     
  1754.39        2500.00        3647.60     
  1751.88        2500.00        3647.96     
  1749.37        2500.00        3648.33     
  1746.87        2500.00        3648.69     
  1744.36        2500.00        3649.05     
  1741.85        2500.00        3649.41     
  1739.35        2500.00        3649.78     
  1736.84        2500.00        3650.14     
  1734.34        2500.00        3650.50     
  1731.83        2500.00        3650.86     
  1729.32        2500.00        3651.22     
  1726.82        2500.00        3651.58     
  1724.31        2500.00        3651.94     
  1721.80        2500.00        3652.31     
  1719.30        2500.00        3652.67     
  1716.79        2500.00        3653.03     
  1714.29        2500.00        3653.39     
  1711.78        2500.00        3653.75     
  1709.27        2500.00        3654.11     
  1706.77        2500.00        3654.47     
  1704.26        2500.00        3654.83     
  1701.75        2500.00        3655.19     
  1699.25        2500.00        3661.66     
  1696.74        2500.00        3665.40     
  1694.24        2500.00        3665.68     
  1691.73        2500.00        3665.96     
  1689.22        2500.00        3666.25     
  1686.72        2500.00        3666.53     
  1684.21        2500.00        3666.82     
  1681.70        2500.00        3667.10     
  1679.20        2500.00        3667.40     
  1676.69        2500.00        3667.67     
  1674.19        2500.00        3667.94     
  1671.68        2500.00        3676.59     
  1669.17        2500.00        3660.04     
  1666.67        2500.00        3668.81     
  1664.16        2500.00        3669.10     
  1661.65        2500.00        3669.41     
  1659.15        2500.00        3669.48     
  1656.64        2500.00        4470.72     
  1654.14        2500.00        3356.12     
  1651.63        2500.00        3382.57     
  1649.12        2500.00        3368.00     
  1646.62        2500.00        3371.62     
  1644.11        2500.00        3371.82     
  1641.60        2500.00        3373.35     
  1639.10        2500.00        3374.89     
  1636.59        2500.00        3376.36     
  1634.09        2500.00        3378.03     
  1631.58        2500.00        3379.50     
  1629.07        2500.00        3381.74     
  1626.57        2500.00        3382.09     
  1624.06        2500.00        3384.04     
  1621.55        2500.00        3273.44     
  1619.05        2500.00        3269.14     
  1616.54        2500.00        3271.37     
  1614.04        2500.00        3272.23     
  1611.53        2500.00        3272.91     
  1609.02        2500.00        3274.22     
  1606.52        2500.00        3275.34     
  1604.01        2500.00        3276.11     
  1601.50        2500.00        3277.83     
  1599.00        2500.00        3279.14     
  1596.49        2500.00        3280.44     
  1593.98        2500.00        3280.79     
  1591.48        2500.00        3282.01     
  1588.97        2500.00        3282.67     
  1586.47        2500.00        3284.86     
  1583.96        2500.00        3286.45     
  1581.45        2500.00        3286.52     
  1578.95        2500.00        3287.09     
  1576.44        2500.00        3288.77     
  1573.93        2500.00        3287.08     
  1571.43        2500.00        3293.43     
  1568.92        2500.00        3291.92     
  1566.42        2500.00        3292.70     
  1563.91        2500.00        3293.96     
  1561.40        2500.00        3294.76     
  1558.90        2500.00        3296.30     
  1556.39        2500.00        3296.99     
  1553.88        2500.00        3298.59     
  1551.38        2500.00        3308.39     
  1548.87        2500.00        3286.39     
  1546.37        2500.00        3338.53     
  1543.86        2500.00        3302.75     
  1541.35        2500.00        3303.36     
  1538.85        2500.00        3305.05     
  1536.34        2500.00        3305.74     
  1533.83        2500.00        3279.59     
  1531.33        2500.00        3280.98     
  1528.82        2500.00        3282.90     
  1526.32        2500.00        3284.61     
  1523.81        2500.00        3286.25     
  1521.30        2500.00        3287.48     
  1518.80        2500.00        3289.04     
  1516.29        2500.00        3290.75     
  1513.78        2500.00        3292.24     
  1511.28        2500.00        3293.98     
  1508.77        2500.00        3295.76     
  1506.27        2500.00        3296.78     
  1503.76        2500.00        3297.67     
  1501.25        2500.00        3299.20     
  1498.75        2500.00        3285.67     
  1496.24        2500.00        3283.11     
  1493.73        2500.00        3285.80     
  1491.23        2500.00        3287.95     
  1488.72        2500.00        3290.10     
  1486.22        2500.00        3292.33     
  1483.71        2500.00        3295.42     
  1481.20        2500.00        3297.36     
  1478.70        2500.00        3299.75     
  1476.19        2500.00        3302.12     
  1473.68        2500.00        3304.51     
  1471.18        2500.00        3306.83     
  1468.67        2500.00        3309.36     
  1466.17        2500.00        3311.78     
  1463.66        2500.00        3314.33     
  1461.15        2500.00        3317.28     
  1458.65        2500.00        3319.57     
  1456.14        2500.00        3321.66     
  1453.63        2500.00        3324.59     
  1451.13        2500.00        3327.16     
  1448.62        2500.00        3334.46     
  1446.12        2500.00        3329.51     
  1443.61        2500.00        3152.67     
  1441.10        2500.00        3157.34     
  1438.60        2500.00        3161.82     
  1436.09        2500.00        3166.06     
  1433.58        2500.00        3170.57     
  1431.08        2500.00        3174.93     
  1428.57        2500.00        3179.15     
  1426.07        2500.00        3183.88     
  1423.56        2500.00        3188.21     
  1421.05        2500.00        3192.95     
  1418.55        2500.00        3197.45     
  1416.04        2500.00        3201.75     
  1413.53        2500.00        3206.13     
  1411.03        2500.00        3211.41     
  1408.52        2500.00        3215.90     
  1406.02        2500.00        3219.41     
  1403.51        2500.00        3224.78     
  1401.00        2500.00        3227.83     
  1398.50        2500.00        3232.37     
  1395.99        2500.00        3236.13     
  1393.48        2500.00        3240.50     
  1390.98        2500.00        3244.76     
  1388.47        2500.00        3248.63     
  1385.96        2500.00        3252.39     
  1383.46        2500.00        3256.58     
  1380.95        2500.00        3260.11     
  1378.45        2500.00        3264.39     
  1375.94        2500.00        3268.34     
  1373.43        2500.00        3271.27     
  1370.93        2500.00        3275.61     
  1368.42        2500.00        3279.09     
  1365.91        2500.00        3283.06     
  1363.41        2500.00        3286.47     
  1360.90        2500.00        3290.72     
  1358.40        2500.00        3293.17     
  1355.89        2500.00        3296.18     
  1353.38        2500.00        3298.77     
  1350.88        2500.00        3338.76     
  1348.37        2500.00        3345.81     
  1345.86        2500.00        3347.79     
  1343.36        2500.00        3350.18     
  1340.85        2500.00        3351.74     
  1338.35        2500.00        3353.59     
  1335.84        2500.00        3355.47     
  1333.33        2500.00        3356.84     
  1330.83        2500.00        3358.26     
  1328.32        2500.00        3359.75     
  1325.81        2500.00        3361.01     
  1323.31        2500.00        3362.06     
  1320.80        2500.00        3363.03     
  1318.30        2500.00        3363.82     
  1315.79        2500.00        3365.10     
  1313.28        2500.00        3365.51     
  1310.78        2500.00        3366.27     
  1308.27        2500.00        3366.41     
  1305.76        2500.00        3367.01     
  1303.26        2500.00        3368.17     
  1300.75        2500.00        3367.44     
  1298.25        2500.00        2879.60     
  1295.74        2500.00        2882.49     
  1293.23        2500.00        2889.61     
  1290.73        2500.00        2895.49     
  1288.22        2500.00        2900.73     
  1285.71        2500.00        2904.81     
  1283.21        2500.00        2906.47     
  1280.70        2500.00        2910.96     
  1278.20        2500.00        2902.48     
  1275.69        2500.00        2867.31     
  1273.18        2500.00        2928.56     
  1270.68        2500.00        2720.57     
  1268.17        2500.00        2720.71     
  1265.66        2500.00        3011.79     
  1263.16        2500.00        2935.79     
  1260.65        2500.00        2918.13     
  1258.15        2500.00        2914.86     
  1255.64        2500.00        2902.19     
  1253.13        2500.00        2880.62     
  1250.63        2500.00        2971.24     
  1248.12        2500.00        2780.71     
  1245.61        2500.00        2852.55     
  1243.11        2500.00        2733.87     
  1240.60        2500.00        2728.74     
  1238.10        2500.00        2720.41     
  1235.59        2500.00        2638.44     
  1233.08        2500.00        2724.84     
  1230.58        2500.00        2693.26     
  1228.07        2500.00        2693.09     
  1225.56        2500.00        2693.22     
  1223.06        2500.00        2693.35     
  1220.55        2500.00        2693.48     
  1218.05        2500.00        2693.61     
  1215.54        2500.00        2693.74     
  1213.03        2500.00        2693.87     
  1210.53        2500.00        2694.00     
  1208.02        2500.00        2694.12     
  1205.51        2500.00        2694.25     
  1203.01        2500.00        2694.39     
  1200.50        2500.00        2694.51     
  1197.99        2500.00        2694.65     
  1195.49        2500.00        2694.78     
  1192.98        2500.00        2694.91     
  1190.48        2500.00        2695.04     
  1187.97        2500.00        2695.17     
  1185.46        2500.00        2695.30     
  1182.96        2500.00        2695.43     
  1180.45        2500.00        2695.56     
  1177.94        2500.00        2695.69     
  1175.44        2500.00        2695.82     
  1172.93        2500.00        2695.75     
  1170.43        2500.00        2695.88     
  1167.92        2500.00        2696.01     
  1165.41        2500.00        2696.14     
  1162.91        2500.00        2696.26     
  1160.40        2500.00        2696.40     
  1157.89        2500.00        2696.52     
  1155.39        2500.00        2696.65     
  1152.88        2500.00        2696.79     
  1150.38        2500.00        2696.92     
  1147.87        2500.00        2697.06     
  1145.36        2500.00        2697.18     
  1142.86        2500.00        2697.31     
  1140.35        2500.00        2697.44     
  1137.84        2500.00        2697.57     
  1135.34        2500.00        2697.70     
  1132.83        2500.00        2697.83     
  1130.33        2500.00        2697.96     
  1127.82        2500.00        2698.01     
  1125.31        2500.00        2698.14     
  1122.81        2500.00        2698.27     
  1120.30        2500.00        2698.40     
  1117.79        2500.00        2698.53     
  1115.29        2500.00        2698.73     
  1112.78        2500.00        2698.85     
  1110.28        2500.00        2699.00     
  1107.77        2500.00        2699.13     
  1105.26        2500.00        2699.25     
  1102.76        2500.00        2699.38     
  1100.25        2500.00        2699.51     
  1097.74        2500.00        2699.55     
  1095.24        2500.00        2699.99     
  1092.73        2500.00        2700.12     
  1090.23        2500.00        2700.02     
  1087.72        2500.00        2700.15     
  1085.21        2500.00        2700.27     
  1082.71        2500.00        2700.40     
  1080.20        2500.00        2700.53     
  1077.69        2500.00        2700.89     
  1075.19        2500.00        2700.78     
  1072.68        2500.00        2701.14     
  1070.18        2500.00        2701.27     
  1067.67        2500.00        2701.40     
  1065.16        2500.00        2701.53     
  1062.66        2500.00        2701.66     
  1060.15        2500.00        2701.79     
  1057.64        2500.00        2701.91     
  1055.14        2500.00        2702.04     
  1052.63        2500.00        2702.17     
  1050.13        2500.00        2702.30     
  1047.62        2500.00        2702.42     
  1045.11        2500.00        2702.55     
  1042.61        2500.00        2702.68     
  1040.10        2500.00        2702.80     
  1037.59        2500.00        2702.93     
  1035.09        2500.00        2703.06     
  1032.58        2500.00        2703.18     
  1030.08        2500.00        2703.31     
  1027.57        2500.00        2703.43     
  1025.06        2500.00        2703.56     
  1022.56        2500.00        2703.28     
  1020.05        2500.00        2703.81     
  1017.54        2500.00        2703.94     
  1015.04        2500.00        2703.74     
  1012.53        2500.00        2704.19     
  1010.03        2500.00        2704.31     
  1007.52        2500.00        2704.43     
  1005.01        2500.00        2704.21     
  1002.51        2500.00        2704.69     
  1000.00        2500.00        2704.46     
