|6.6.6
Archiving\03_Data\Deq/QFM_m0.5/YM20/YM20_3.tab                          
           1
T(K)    
  0.000000000000000E+000
  0.000000000000000E+000
           0
           9
T(K)           P(bar)         melt(TH)       O(HP)          Sp(TH)         Opx(TH)        Cpx(TH)        Cpx(TH)        an            
  2000.00        2500.00        99.6388       0.361165                 NaN            NaN            NaN            NaN            NaN
  1996.79        2500.00        99.6219       0.378054                 NaN            NaN            NaN            NaN            NaN
  1993.59        2500.00        99.6051       0.394946                 NaN            NaN            NaN            NaN            NaN
  1990.38        2500.00        99.5882       0.411842                 NaN            NaN            NaN            NaN            NaN
  1987.18        2500.00        99.5713       0.428742                 NaN            NaN            NaN            NaN            NaN
  1983.97        2500.00        99.5544       0.445646                 NaN            NaN            NaN            NaN            NaN
  1980.77        2500.00        99.5374       0.462553                 NaN            NaN            NaN            NaN            NaN
  1977.56        2500.00        99.5205       0.479464                 NaN            NaN            NaN            NaN            NaN
  1974.36        2500.00        99.5036       0.496379                 NaN            NaN            NaN            NaN            NaN
  1971.15        2500.00        99.4666       0.533425                 NaN            NaN            NaN            NaN            NaN
  1967.95        2500.00        99.4295       0.570480                 NaN            NaN            NaN            NaN            NaN
  1964.74        2500.00        99.3925       0.607544                 NaN            NaN            NaN            NaN            NaN
  1961.54        2500.00        99.3554       0.644616                 NaN            NaN            NaN            NaN            NaN
  1958.33        2500.00        99.3183       0.681698                 NaN            NaN            NaN            NaN            NaN
  1955.13        2500.00        99.2812       0.718789                 NaN            NaN            NaN            NaN            NaN
  1951.92        2500.00        99.2441       0.755888                 NaN            NaN            NaN            NaN            NaN
  1948.72        2500.00        99.2070       0.792997                 NaN            NaN            NaN            NaN            NaN
  1945.51        2500.00        99.0846       0.915431                 NaN            NaN            NaN            NaN            NaN
  1942.31        2500.00        98.9621        1.03791                 NaN            NaN            NaN            NaN            NaN
  1939.10        2500.00        98.8396        1.16043                 NaN            NaN            NaN            NaN            NaN
  1935.90        2500.00        98.7170        1.28299                 NaN            NaN            NaN            NaN            NaN
  1932.69        2500.00        98.5944        1.40560                 NaN            NaN            NaN            NaN            NaN
  1929.49        2500.00        98.4718        1.52824                 NaN            NaN            NaN            NaN            NaN
  1926.28        2500.00        98.3491        1.65093                 NaN            NaN            NaN            NaN            NaN
  1923.08        2500.00        98.2263        1.77367                 NaN            NaN            NaN            NaN            NaN
  1919.87        2500.00        97.9964        2.00365                 NaN            NaN            NaN            NaN            NaN
  1916.67        2500.00        97.6946        2.29477       0.106499E-001            NaN            NaN            NaN            NaN
  1913.46        2500.00        97.3275        2.64785       0.246189E-001            NaN            NaN            NaN            NaN
  1910.26        2500.00        96.9602        3.00117       0.385980E-001            NaN            NaN            NaN            NaN
  1907.05        2500.00        96.4776        3.47055       0.518554E-001            NaN            NaN            NaN            NaN
  1903.85        2500.00        95.9946        3.94032       0.651243E-001            NaN            NaN            NaN            NaN
  1900.64        2500.00        95.5111        4.41047       0.784046E-001            NaN            NaN            NaN            NaN
  1897.44        2500.00        95.0273        4.88101       0.916963E-001            NaN            NaN            NaN            NaN
  1894.23        2500.00        94.4556        5.44063       0.103798                 NaN            NaN            NaN            NaN
  1891.03        2500.00        93.8833        6.00077       0.115912                 NaN            NaN            NaN            NaN
  1887.82        2500.00        93.3105        6.56143       0.128037                 NaN            NaN            NaN            NaN
  1884.62        2500.00        92.7372        7.12260       0.140174                 NaN            NaN            NaN            NaN
  1881.41        2500.00        92.1634        7.68429       0.152323                 NaN            NaN            NaN            NaN
  1878.21        2500.00        91.5890        8.24648       0.164483                 NaN            NaN            NaN            NaN
  1875.00        2500.00        91.0142        8.80919       0.176654                 NaN            NaN            NaN            NaN
  1871.79        2500.00        90.4388        9.37240       0.188837                 NaN            NaN            NaN            NaN
  1868.59        2500.00        89.8613        9.93879       0.199942                 NaN            NaN            NaN            NaN
  1865.38        2500.00        89.2833        10.5057       0.211057                 NaN            NaN            NaN            NaN
  1862.18        2500.00        88.7047        11.0731       0.222183                 NaN            NaN            NaN            NaN
  1858.97        2500.00        88.1257        11.6410       0.233320                 NaN            NaN            NaN            NaN
  1855.77        2500.00        87.5461        12.2094       0.244466                 NaN            NaN            NaN            NaN
  1852.56        2500.00        86.9660        12.7783       0.255623                 NaN            NaN            NaN            NaN
  1849.36        2500.00        86.3854        13.3478       0.266790                 NaN            NaN            NaN            NaN
  1846.15        2500.00        85.8043        13.9177       0.277967                 NaN            NaN            NaN            NaN
  1842.95        2500.00        85.2459        14.4659       0.288234                 NaN            NaN            NaN            NaN
  1839.74        2500.00        84.6869        15.0146       0.298509                 NaN            NaN            NaN            NaN
  1836.54        2500.00        84.1275        15.5638       0.308793                 NaN            NaN            NaN            NaN
  1833.33        2500.00        83.5676        16.1134       0.319087                 NaN            NaN            NaN            NaN
  1830.13        2500.00        83.0072        16.6634       0.329389                 NaN            NaN            NaN            NaN
  1826.92        2500.00        82.4464        17.2139       0.339700                 NaN            NaN            NaN            NaN
  1823.72        2500.00        81.8851        17.7649       0.350020                 NaN            NaN            NaN            NaN
  1820.51        2500.00        81.3233        18.3163       0.360348                 NaN            NaN            NaN            NaN
  1817.31        2500.00        80.7851        18.8450       0.369873                 NaN            NaN            NaN            NaN
  1814.10        2500.00        80.2465        19.3741       0.379406                 NaN            NaN            NaN            NaN
  1810.90        2500.00        79.7075        19.9036       0.388947                 NaN            NaN            NaN            NaN
  1807.69        2500.00        79.1680        20.4335       0.398495                 NaN            NaN            NaN            NaN
  1804.49        2500.00        78.6282        20.9638       0.408050                 NaN            NaN            NaN            NaN
  1801.28        2500.00        78.0879        21.4945       0.417613                 NaN            NaN            NaN            NaN
  1798.08        2500.00        77.5473        22.0256       0.427184                 NaN            NaN            NaN            NaN
  1794.87        2500.00        77.0062        22.5570       0.436762                 NaN            NaN            NaN            NaN
  1791.67        2500.00        76.4827        23.0716       0.445656                 NaN            NaN            NaN            NaN
  1788.46        2500.00        75.9588        23.5866       0.454557                 NaN            NaN            NaN            NaN
  1785.26        2500.00        75.4346        24.1019       0.463464                 NaN            NaN            NaN            NaN
  1782.05        2500.00        74.9100        24.6176       0.472378                 NaN            NaN            NaN            NaN
  1778.85        2500.00        74.3850        25.1337       0.481298                 NaN            NaN            NaN            NaN
  1775.64        2500.00        73.8597        25.6501       0.490225                 NaN            NaN            NaN            NaN
  1772.44        2500.00        73.3340        26.1668       0.499158                 NaN            NaN            NaN            NaN
  1769.23        2500.00        72.8080        26.6839       0.508098                 NaN            NaN            NaN            NaN
  1766.03        2500.00        72.2975        27.1862       0.516351                 NaN            NaN            NaN            NaN
  1762.82        2500.00        71.7866        27.6888       0.524610                 NaN            NaN            NaN            NaN
  1759.62        2500.00        71.2755        28.1917       0.532874                 NaN            NaN            NaN            NaN
  1756.41        2500.00        70.7640        28.6949       0.541143                 NaN            NaN            NaN            NaN
  1753.21        2500.00        70.2522        29.1984       0.549418                 NaN            NaN            NaN            NaN
  1750.00        2500.00        69.7400        29.7023       0.557698                 NaN            NaN            NaN            NaN
  1746.79        2500.00        69.2276        30.2064       0.565984                 NaN            NaN            NaN            NaN
  1743.59        2500.00        68.7149        30.7109       0.574274                 NaN            NaN            NaN            NaN
  1740.38        2500.00        68.2190        31.1988       0.582229                 NaN            NaN            NaN            NaN
  1737.18        2500.00        67.7229        31.6870       0.590188                 NaN            NaN            NaN            NaN
  1733.97        2500.00        67.2264        32.1754       0.598151                 NaN            NaN            NaN            NaN
  1730.77        2500.00        66.7298        32.6641       0.606120                 NaN            NaN            NaN            NaN
  1727.56        2500.00        66.2328        33.1531       0.614092                 NaN            NaN            NaN            NaN
  1724.36        2500.00        65.7356        33.6423       0.622069                 NaN            NaN            NaN            NaN
  1721.15        2500.00        65.2381        34.1318       0.630051                 NaN            NaN            NaN            NaN
  1717.95        2500.00        64.7404        34.6216       0.638037                 NaN            NaN            NaN            NaN
  1714.74        2500.00        64.2609        35.0936       0.645524                 NaN            NaN            NaN            NaN
  1711.54        2500.00        63.7812        35.5658       0.653014                 NaN            NaN            NaN            NaN
  1708.33        2500.00        63.3013        36.0382       0.660508                 NaN            NaN            NaN            NaN
  1705.13        2500.00        62.8211        36.5109       0.668006                 NaN            NaN            NaN            NaN
  1701.92        2500.00        62.3407        36.9837       0.675507                 NaN            NaN            NaN            NaN
  1698.72        2500.00        61.8602        37.4568       0.683012                 NaN            NaN            NaN            NaN
  1695.51        2500.00        61.3794        37.9301       0.690521                 NaN            NaN            NaN            NaN
  1692.31        2500.00        60.8984        38.4036       0.698032                 NaN            NaN            NaN            NaN
  1689.10        2500.00        60.4403        38.8545       0.705137                 NaN            NaN            NaN            NaN
  1685.90        2500.00        59.9821        39.3056       0.712244                 NaN            NaN            NaN            NaN
  1682.69        2500.00        59.5238        39.7569       0.719355                 NaN            NaN            NaN            NaN
  1679.49        2500.00        59.0652        40.2083       0.726468                 NaN            NaN            NaN            NaN
  1676.28        2500.00        58.6065        40.6599       0.733583                 NaN            NaN            NaN            NaN
  1673.08        2500.00        58.1476        41.1117       0.740702                 NaN            NaN            NaN            NaN
  1669.87        2500.00        57.6886        41.5636       0.747823                 NaN            NaN            NaN            NaN
  1666.67        2500.00        57.2294        42.0156       0.754946                 NaN            NaN            NaN            NaN
  1663.46        2500.00        56.7906        42.4475       0.761896                 NaN            NaN            NaN            NaN
  1660.26        2500.00        56.3516        42.8796       0.768848                 NaN            NaN            NaN            NaN
  1657.05        2500.00        55.9125        43.3117       0.775801                 NaN            NaN            NaN            NaN
  1653.85        2500.00        55.4732        43.7440       0.782758                 NaN            NaN            NaN            NaN
  1650.64        2500.00        54.3717        44.0474       0.782728       0.798161                 NaN            NaN            NaN
  1647.44        2500.00        52.9394        44.2712       0.778808        2.01059                 NaN            NaN            NaN
  1644.23        2500.00        51.5948        44.4801       0.774881        3.15029                 NaN            NaN            NaN
  1641.03        2500.00        50.2464        44.6894       0.770941        4.29326                 NaN            NaN            NaN
  1637.82        2500.00        49.1455        44.8560       0.766359        5.23214                 NaN            NaN            NaN
  1634.62        2500.00        48.0421        45.0229       0.761765        6.17324                 NaN            NaN            NaN
  1631.41        2500.00        46.9362        45.1901       0.757159        7.11657                 NaN            NaN            NaN
  1628.21        2500.00        45.8278        45.3576       0.752540        8.06212                 NaN            NaN            NaN
  1625.00        2500.00        44.7168        45.5254       0.747909        9.00990                 NaN            NaN            NaN
  1621.79        2500.00        43.6033        45.6935       0.743266        9.95992                 NaN            NaN            NaN
  1618.59        2500.00        42.4873        45.8619       0.738610        10.9122                 NaN            NaN            NaN
  1615.38        2500.00        41.3688        46.0306       0.733942        11.8667                 NaN            NaN            NaN
  1612.18        2500.00        40.5284        46.1498       0.728538        12.5932                 NaN            NaN            NaN
  1608.97        2500.00        39.6866        46.2692       0.723123        13.3211                 NaN            NaN            NaN
  1605.77        2500.00        38.8433        46.3887       0.717697        14.0503                 NaN            NaN            NaN
  1602.56        2500.00        37.9986        46.5083       0.712261        14.7808                 NaN            NaN            NaN
  1599.36        2500.00        37.1524        46.6281       0.706814        15.5126                 NaN            NaN            NaN
  1596.15        2500.00        36.3048        46.7480       0.701356        16.2458                 NaN            NaN            NaN
  1592.95        2500.00        35.4558        46.8681       0.695887        16.9802                 NaN            NaN            NaN
  1589.74        2500.00        34.6053        46.9884       0.690407        17.7160                 NaN            NaN            NaN
  1586.54        2500.00        33.9248        47.0774       0.684107        18.3137                 NaN            NaN            NaN
  1583.33        2500.00        33.2433        47.1665       0.677797        18.9123                 NaN            NaN            NaN
  1580.13        2500.00        32.5609        47.2557       0.671478        19.5118                 NaN            NaN            NaN
  1576.92        2500.00        31.8776        47.3450       0.665148        20.1122                 NaN            NaN            NaN
  1573.72        2500.00        31.1934        47.4344       0.658808        20.7134                 NaN            NaN            NaN
  1570.51        2500.00        30.5082        47.5238       0.652458        21.3155                 NaN            NaN            NaN
  1567.31        2500.00        29.8220        47.6134       0.646099        21.9185                 NaN            NaN            NaN
  1564.10        2500.00        29.1349        47.7030       0.639729        22.5224                 NaN            NaN            NaN
  1560.90        2500.00        28.5489        47.7735       0.632071        23.0456                 NaN            NaN            NaN
  1557.69        2500.00        27.9621        47.8441       0.624402        23.5694                 NaN            NaN            NaN
  1554.49        2500.00        27.3747        47.9147       0.616723        24.0939                 NaN            NaN            NaN
  1551.28        2500.00        26.7866        47.9854       0.609034        24.6190                 NaN            NaN            NaN
  1548.08        2500.00        26.1978        48.0561       0.601334        25.1448                 NaN            NaN            NaN
  1544.87        2500.00        25.6083        48.1269       0.593624        25.6713                 NaN            NaN            NaN
  1541.67        2500.00        25.0181        48.1977       0.585903        26.1984                 NaN            NaN            NaN
  1538.46        2500.00        24.4272        48.2686       0.578173        26.7261                 NaN            NaN            NaN
