|6.6.6
Archiving\03_Data\eq/QFM_m3/GRV/GRV_3.tab                                 
           1
T(K)    
  0.000000000000000E+000
  0.000000000000000E+000
           0
           9
T(K)           P(bar)         melt(TH)       pxmn           Sp(TH)         O(HP)          Opx(TH)        Cpx(TH)        Cpx(TH)       
  2000.00        2500.00        99.3196       0.680406                 NaN            NaN            NaN            NaN            NaN
  1996.79        2500.00        99.3195       0.680479                 NaN            NaN            NaN            NaN            NaN
  1993.59        2500.00        99.3194       0.680553                 NaN            NaN            NaN            NaN            NaN
  1990.38        2500.00        99.3194       0.680627                 NaN            NaN            NaN            NaN            NaN
  1987.18        2500.00        99.3193       0.680700                 NaN            NaN            NaN            NaN            NaN
  1983.97        2500.00        99.3192       0.680774                 NaN            NaN            NaN            NaN            NaN
  1980.77        2500.00        99.3192       0.680848                 NaN            NaN            NaN            NaN            NaN
  1977.56        2500.00        99.3191       0.680922                 NaN            NaN            NaN            NaN            NaN
  1974.36        2500.00        99.3190       0.680996                 NaN            NaN            NaN            NaN            NaN
  1971.15        2500.00        99.3189       0.681070                 NaN            NaN            NaN            NaN            NaN
  1967.95        2500.00        99.3189       0.681144                 NaN            NaN            NaN            NaN            NaN
  1964.74        2500.00        99.3188       0.681218                 NaN            NaN            NaN            NaN            NaN
  1961.54        2500.00        99.3187       0.681292                 NaN            NaN            NaN            NaN            NaN
  1958.33        2500.00        99.3186       0.681367                 NaN            NaN            NaN            NaN            NaN
  1955.13        2500.00        99.3186       0.681441                 NaN            NaN            NaN            NaN            NaN
  1951.92        2500.00        99.3185       0.681515                 NaN            NaN            NaN            NaN            NaN
  1948.72        2500.00        99.3184       0.681590                 NaN            NaN            NaN            NaN            NaN
  1945.51        2500.00        99.3183       0.681664                 NaN            NaN            NaN            NaN            NaN
  1942.31        2500.00        99.3183       0.681739                 NaN            NaN            NaN            NaN            NaN
  1939.10        2500.00        99.3182       0.681813                 NaN            NaN            NaN            NaN            NaN
  1935.90        2500.00        99.3181       0.681888                 NaN            NaN            NaN            NaN            NaN
  1932.69        2500.00        99.3180       0.681963                 NaN            NaN            NaN            NaN            NaN
  1929.49        2500.00        99.3180       0.682037                 NaN            NaN            NaN            NaN            NaN
  1926.28        2500.00        99.3179       0.682112                 NaN            NaN            NaN            NaN            NaN
  1923.08        2500.00        99.3178       0.682187                 NaN            NaN            NaN            NaN            NaN
  1919.87        2500.00        99.3177       0.682262                 NaN            NaN            NaN            NaN            NaN
  1916.67        2500.00        99.3177       0.682337                 NaN            NaN            NaN            NaN            NaN
  1913.46        2500.00        99.3176       0.682412                 NaN            NaN            NaN            NaN            NaN
  1910.26        2500.00        99.3175       0.682487                 NaN            NaN            NaN            NaN            NaN
  1907.05        2500.00        99.3174       0.682562                 NaN            NaN            NaN            NaN            NaN
  1903.85        2500.00        99.3174       0.682637                 NaN            NaN            NaN            NaN            NaN
  1900.64        2500.00        99.3173       0.682713                 NaN            NaN            NaN            NaN            NaN
  1897.44        2500.00        99.3172       0.682788                 NaN            NaN            NaN            NaN            NaN
  1894.23        2500.00        99.3171       0.682863                 NaN            NaN            NaN            NaN            NaN
  1891.03        2500.00        99.3171       0.682939                 NaN            NaN            NaN            NaN            NaN
  1887.82        2500.00        99.3170       0.683014                 NaN            NaN            NaN            NaN            NaN
  1884.62        2500.00        99.3169       0.683090                 NaN            NaN            NaN            NaN            NaN
  1881.41        2500.00        99.3168       0.683165                 NaN            NaN            NaN            NaN            NaN
  1878.21        2500.00        99.3168       0.683241                 NaN            NaN            NaN            NaN            NaN
  1875.00        2500.00        99.3167       0.683317                 NaN            NaN            NaN            NaN            NaN
  1871.79        2500.00        99.3166       0.683392                 NaN            NaN            NaN            NaN            NaN
  1868.59        2500.00        99.3165       0.683468                 NaN            NaN            NaN            NaN            NaN
  1865.38        2500.00        99.3165       0.683544                 NaN            NaN            NaN            NaN            NaN
  1862.18        2500.00        99.3164       0.683620                 NaN            NaN            NaN            NaN            NaN
  1858.97        2500.00        99.3163       0.683696                 NaN            NaN            NaN            NaN            NaN
  1855.77        2500.00        99.3162       0.683772                 NaN            NaN            NaN            NaN            NaN
  1852.56        2500.00        99.3162       0.683848                 NaN            NaN            NaN            NaN            NaN
  1849.36        2500.00        99.3161       0.683924                 NaN            NaN            NaN            NaN            NaN
  1846.15        2500.00        99.3160       0.684000                 NaN            NaN            NaN            NaN            NaN
  1842.95        2500.00        99.3159       0.684076                 NaN            NaN            NaN            NaN            NaN
  1839.74        2500.00        99.3158       0.684153                 NaN            NaN            NaN            NaN            NaN
  1836.54        2500.00        99.3158       0.684229                 NaN            NaN            NaN            NaN            NaN
  1833.33        2500.00        99.3157       0.684305                 NaN            NaN            NaN            NaN            NaN
  1830.13        2500.00        99.3156       0.684382                 NaN            NaN            NaN            NaN            NaN
  1826.92        2500.00        99.3155       0.684458                 NaN            NaN            NaN            NaN            NaN
  1823.72        2500.00        99.3155       0.684535                 NaN            NaN            NaN            NaN            NaN
  1820.51        2500.00        99.3145       0.684613       0.904685E-003            NaN            NaN            NaN            NaN
  1817.31        2500.00        99.3016       0.684707       0.136444E-001            NaN            NaN            NaN            NaN
  1814.10        2500.00        99.2888       0.684801       0.263879E-001            NaN            NaN            NaN            NaN
  1810.90        2500.00        99.2760       0.684895       0.391350E-001            NaN            NaN            NaN            NaN
  1807.69        2500.00        99.2631       0.684990       0.518857E-001            NaN            NaN            NaN            NaN
  1804.49        2500.00        99.2503       0.685084       0.646401E-001            NaN            NaN            NaN            NaN
  1801.28        2500.00        99.2374       0.685179       0.773982E-001            NaN            NaN            NaN            NaN
  1798.08        2500.00        99.2246       0.685273       0.901600E-001            NaN            NaN            NaN            NaN
  1794.87        2500.00        99.2117       0.685367       0.102925                 NaN            NaN            NaN            NaN
  1791.67        2500.00        99.1992       0.685461       0.115371                 NaN            NaN            NaN            NaN
  1788.46        2500.00        99.1866       0.685555       0.127821                 NaN            NaN            NaN            NaN
  1785.26        2500.00        99.1741       0.685649       0.140274                 NaN            NaN            NaN            NaN
  1782.05        2500.00        99.1615       0.685743       0.152730                 NaN            NaN            NaN            NaN
  1778.85        2500.00        99.1493       0.685837       0.164845                 NaN            NaN            NaN            NaN
  1775.64        2500.00        99.1371       0.685931       0.176964                 NaN            NaN            NaN            NaN
  1772.44        2500.00        99.1251       0.686024       0.188917                 NaN            NaN            NaN            NaN
  1769.23        2500.00        98.3660       0.686381       0.201006       0.746625                 NaN            NaN            NaN
  1766.03        2500.00        97.5916       0.686741       0.212568        1.50908                 NaN            NaN            NaN
  1762.82        2500.00        96.8165       0.687100       0.224142        2.27230                 NaN            NaN            NaN
  1759.62        2500.00        96.0405       0.687457       0.235727        3.03628                 NaN            NaN            NaN
  1756.41        2500.00        95.2638       0.687811       0.247323        3.80102                 NaN            NaN            NaN
  1753.21        2500.00        94.4864       0.688164       0.258931        4.56651                 NaN            NaN            NaN
  1750.00        2500.00        93.7082       0.688515       0.270550        5.33274                 NaN            NaN            NaN
  1746.79        2500.00        92.9292       0.688864       0.282180        6.09971                 NaN            NaN            NaN
  1743.59        2500.00        92.1496       0.689211       0.293821        6.86741                 NaN            NaN            NaN
  1740.38        2500.00        91.3710       0.689554       0.304449        7.63500                 NaN            NaN            NaN
  1737.18        2500.00        90.5917       0.689895       0.315087        8.40331                 NaN            NaN            NaN
  1733.97        2500.00        89.8117       0.690234       0.325735        9.17231                 NaN            NaN            NaN
  1730.77        2500.00        89.0310       0.690571       0.336392        9.94202                 NaN            NaN            NaN
  1727.56        2500.00        88.2496       0.690905       0.347058        10.7124                 NaN            NaN            NaN
  1724.36        2500.00        87.4676       0.691237       0.357734        11.4835                 NaN            NaN            NaN
  1721.15        2500.00        86.6848       0.691567       0.368418        12.2552                 NaN            NaN            NaN
  1717.95        2500.00        85.9014       0.691895       0.379112        13.0276                 NaN            NaN            NaN
  1714.74        2500.00        85.1365       0.692213       0.388983        13.7823                 NaN            NaN            NaN
  1711.54        2500.00        84.3711       0.692529       0.398863        14.5375                 NaN            NaN            NaN
  1708.33        2500.00        83.6050       0.692842       0.408750        15.2934                 NaN            NaN            NaN
  1705.13        2500.00        82.8384       0.693153       0.418644        16.0498                 NaN            NaN            NaN
  1701.92        2500.00        82.0711       0.693461       0.428546        16.8069                 NaN            NaN            NaN
  1698.72        2500.00        81.3032       0.693767       0.438455        17.5645                 NaN            NaN            NaN
  1695.51        2500.00        80.5348       0.694071       0.448371        18.3227                 NaN            NaN            NaN
  1692.31        2500.00        79.7658       0.694371       0.458294        19.0815                 NaN            NaN            NaN
  1689.10        2500.00        79.0266       0.694659       0.467568        19.8112                 NaN            NaN            NaN
  1685.90        2500.00        78.2869       0.694944       0.476847        20.5413                 NaN            NaN            NaN
  1682.69        2500.00        77.5467       0.695226       0.486133        21.2720                 NaN            NaN            NaN
  1679.49        2500.00        76.8060       0.695505       0.495423        22.0031                 NaN            NaN            NaN
  1676.28        2500.00        76.0827       0.695778       0.504493        22.7170                 NaN            NaN            NaN
  1673.08        2500.00        75.3591       0.696048       0.513569        23.4313                 NaN            NaN            NaN
  1669.87        2500.00        73.8191       0.697099       0.521536        23.8914        1.07086                 NaN            NaN
  1666.67        2500.00        71.6976       0.698723       0.528515        24.1613        2.91387                 NaN            NaN
  1663.46        2500.00        69.9540       0.700081       0.532641        24.3649        4.44832                 NaN            NaN
  1660.26        2500.00        68.2038       0.701442       0.536781        24.5693        5.98867                 NaN            NaN
  1657.05        2500.00        66.4470       0.702806       0.540936        24.7743        7.53494                 NaN            NaN
  1653.85        2500.00        64.6834       0.704173       0.545106        24.9802        9.08717                 NaN            NaN
  1650.64        2500.00        62.9131       0.705544       0.549291        25.1867        10.6454                 NaN            NaN
  1647.44        2500.00        61.1361       0.706918       0.553490        25.3939        12.2095                 NaN            NaN
  1644.23        2500.00        59.3523       0.708295       0.557704        25.6019        13.7797                 NaN            NaN
  1641.03        2500.00        57.5618       0.709675       0.561933        25.8106        15.3560                 NaN            NaN
  1637.82        2500.00        56.2249       0.710742       0.562119        25.9443        16.5579                 NaN            NaN
  1634.62        2500.00        54.8842       0.711811       0.562305        26.0784        17.7633                 NaN            NaN
  1631.41        2500.00        53.5395       0.712882       0.562490        26.2128        18.9723                 NaN            NaN
  1628.21        2500.00        52.1909       0.713955       0.562675        26.3476        20.1849                 NaN            NaN
  1625.00        2500.00        50.8385       0.715029       0.562859        26.4827        21.4010                 NaN            NaN
  1621.79        2500.00        49.4820       0.716105       0.563042        26.6181        22.6207                 NaN            NaN
  1618.59        2500.00        48.1217       0.717183       0.563225        26.7539        23.8440                 NaN            NaN
  1615.38        2500.00        46.7574       0.718263       0.563407        26.8901        25.0709                 NaN            NaN
  1612.18        2500.00        45.6436       0.719174       0.559550        26.9840        26.0937                 NaN            NaN
  1608.97        2500.00        44.5271       0.720087       0.555682        27.0780        27.1191                 NaN            NaN
  1605.77        2500.00        43.4079       0.721002       0.551804        27.1723        28.1470                 NaN            NaN
  1602.56        2500.00        42.2860       0.721917       0.547915        27.2668        29.1774                 NaN            NaN
  1599.36        2500.00        41.1613       0.722834       0.544015        27.3615        30.2104                 NaN            NaN
  1596.15        2500.00        40.0340       0.723752       0.540104        27.4563        31.2458                 NaN            NaN
  1592.95        2500.00        38.9039       0.724671       0.536183        27.5514        32.2839                 NaN            NaN
  1589.74        2500.00        37.7711       0.725592       0.532251        27.6467        33.3244                 NaN            NaN
  1586.54        2500.00        36.7360       0.726450       0.524371        27.7292        34.2840                 NaN            NaN
  1583.33        2500.00        35.6986       0.727309       0.516472        27.8118        35.2458                 NaN            NaN
  1580.13        2500.00        34.6589       0.728169       0.508554        27.8946        36.2098                 NaN            NaN
  1576.92        2500.00        33.6169       0.729030       0.500616        27.9776        37.1759                 NaN            NaN
  1573.72        2500.00        32.5928       0.729883       0.490096        28.0610        38.1262                 NaN            NaN
  1570.51        2500.00        31.5664       0.730738       0.479550        28.1446        39.0787                 NaN            NaN
  1567.31        2500.00        30.3095       0.731780       0.481909        28.2249        38.5520        1.69999                 NaN
  1564.10        2500.00        29.0162       0.732859       0.485259        28.3088        37.8989        3.55793                 NaN
  1560.90        2500.00        27.6889       0.733991       0.486150        28.4077        37.3780        5.30526                 NaN
  1557.69        2500.00        26.3577       0.735125       0.487044        28.5068        36.8554        7.05795                 NaN
  1554.49        2500.00        25.0226       0.736260       0.487941        28.6061        36.3311        8.81601                 NaN
  1551.28        2500.00        23.6836       0.737398       0.488840        28.7057        35.8050        10.5794                 NaN
  1548.08        2500.00        22.3656       0.738546       0.485164        28.8167        35.5835        12.0105                 NaN
  1544.87        2500.00        21.0572       0.739700       0.476278        28.9370        35.6915        12.8140       0.284249     
  1541.67        2500.00        21.0561       0.739721       0.476296        28.9374        35.6920        12.8142       0.284252     
  1538.46        2500.00        18.4349       0.742063       0.432410        29.2264        37.4372        10.5443        3.18270     
