|6.6.6
Archiving\03_Data\eqfracLP/QFM_m0.25/TIS/TIS_6.tab                        
           1
T(K)    
  0.000000000000000E+000
  0.000000000000000E+000
           0
           3
T(K)           P(bar)         rho,kg/m3     
  1423.08        500.000        3330.41     
  1422.02        500.000        3311.10     
  1420.96        500.000        3306.52     
  1419.90        500.000        3307.68     
  1418.84        500.000        3308.82     
  1417.78        500.000        3312.93     
  1416.72        500.000        3310.93     
  1415.66        500.000        3311.96     
  1414.60        500.000        3313.01     
  1413.54        500.000        3333.32     
  1412.48        500.000        3315.37     
  1411.42        500.000        3316.43     
  1410.36        500.000        3318.75     
  1409.30        500.000        3318.39     
  1408.24        500.000        3319.39     
  1407.17        500.000        3320.69     
  1406.11        500.000        3321.90     
  1405.05        500.000        3323.16     
  1403.99        500.000        3323.71     
  1402.93        500.000        3325.47     
  1401.87        500.000        3326.55     
  1400.81        500.000        3328.05     
  1399.75        500.000        3218.22     
  1398.69        500.000        3151.54     
  1397.63        500.000        3152.78     
  1396.57        500.000        3154.05     
  1395.51        500.000        3158.86     
  1394.45        500.000        3156.76     
  1393.39        500.000        3157.85     
  1392.33        500.000        3159.25     
  1391.27        500.000        3160.52     
  1390.21        500.000        3161.82     
  1389.15        500.000        3170.85     
  1388.09        500.000        3175.64     
  1387.03        500.000        3177.19     
  1385.97        500.000        3178.76     
  1384.91        500.000        3180.53     
  1383.85        500.000        3182.18     
  1382.79        500.000        3183.83     
  1381.73        500.000        3185.83     
  1380.67        500.000        3187.27     
  1379.61        500.000        3189.13     
  1378.55        500.000        3190.78     
  1377.48        500.000        3192.57     
  1376.42        500.000        3194.18     
  1375.36        500.000        3195.97     
  1374.30        500.000        3204.40     
  1373.24        500.000        2831.03     
  1372.18        500.000        2831.22     
  1371.12        500.000        3203.61     
  1370.06        500.000        3204.70     
  1369.00        500.000        3206.83     
  1367.94        500.000        3208.45     
  1366.88        500.000        3210.16     
  1365.82        500.000        3212.10     
  1364.76        500.000        3213.96     
  1363.70        500.000        3215.72     
  1362.64        500.000        3217.53     
  1361.58        500.000        3219.18     
  1360.52        500.000        3221.14     
  1359.46        500.000        3223.13     
  1358.40        500.000        3224.90     
  1357.34        500.000        3226.93     
  1356.28        500.000        3228.52     
  1355.22        500.000        3230.39     
  1354.16        500.000        3232.20     
  1353.10        500.000        3234.18     
  1352.04        500.000        3236.20     
  1350.98        500.000        3237.88     
  1349.92        500.000        3239.84     
  1348.86        500.000        3241.74     
  1347.80        500.000        3243.67     
  1346.73        500.000        3245.46     
  1345.67        500.000        3251.15     
  1344.61        500.000        3263.67     
  1343.55        500.000        3269.69     
  1342.49        500.000        3276.70     
  1341.43        500.000        3286.11     
  1340.37        500.000        3293.84     
  1339.31        500.000        3304.19     
  1338.25        500.000        3313.03     
  1337.19        500.000        3324.56     
  1336.13        500.000        3331.08     
  1335.07        500.000        3338.43     
  1334.01        500.000        3343.85     
  1332.95        500.000        3348.15     
  1331.89        500.000        3351.62     
  1330.83        500.000        3355.10     
  1329.77        500.000        3357.83     
  1328.71        500.000        3359.78     
  1327.65        500.000        3360.99     
  1326.59        500.000        3362.82     
  1325.53        500.000        3367.11     
  1324.47        500.000        3365.48     
  1323.41        500.000        3366.44     
  1322.35        500.000        3367.83     
  1321.29        500.000        3368.73     
  1320.23        500.000        3369.71     
  1319.17        500.000        3370.50     
  1318.11        500.000        3371.54     
  1317.04        500.000        3372.28     
  1315.98        500.000        3372.94     
  1314.92        500.000        3373.80     
  1313.86        500.000        3374.24     
  1312.80        500.000        3374.94     
  1311.74        500.000        3375.57     
  1310.68        500.000        3376.38     
  1309.62        500.000        3376.91     
  1308.56        500.000        3377.59     
  1307.50        500.000        3378.31     
  1306.44        500.000        3378.68     
  1305.38        500.000        3379.18     
  1304.32        500.000        3379.74     
  1303.26        500.000        3380.41     
  1302.20        500.000        3380.82     
  1301.14        500.000        3381.29     
  1300.08        500.000        3381.82     
  1299.02        500.000        3382.20     
  1297.96        500.000        3382.59     
  1296.90        500.000        3383.11     
  1295.84        500.000        3383.49     
  1294.78        500.000        3383.85     
  1293.72        500.000        3384.22     
  1292.66        500.000        3384.82     
  1291.60        500.000        3385.10     
  1290.54        500.000        3385.31     
  1289.48        500.000        3385.71     
  1288.42        500.000        3385.95     
  1287.36        500.000        3386.09     
  1286.29        500.000        3386.40     
  1285.23        500.000        3386.61     
  1284.17        500.000        3386.28     
  1283.11        500.000        3387.73     
  1282.05        500.000        3387.40     
  1280.99        500.000        3387.46     
  1279.93        500.000        3387.67     
  1278.87        500.000        3387.89     
  1277.81        500.000        3387.91     
  1276.75        500.000        3388.09     
  1275.69        500.000        3388.20     
  1274.63        500.000        3388.15     
  1273.57        500.000        3388.46     
  1272.51        500.000        3388.16     
  1271.45        500.000        3388.19     
  1270.39        500.000        2865.87     
  1269.33        500.000        2864.17     
  1268.27        500.000        2865.58     
  1267.21        500.000        2866.83     
  1266.15        500.000        2867.97     
  1265.09        500.000        2869.07     
  1264.03        500.000        2870.14     
  1262.97        500.000        2871.11     
  1261.91        500.000        2872.06     
  1260.85        500.000        2872.84     
  1259.79        500.000        2873.71     
  1258.73        500.000        2874.23     
  1257.67        500.000        2875.07     
  1256.60        500.000        2875.65     
  1255.54        500.000        2876.23     
  1254.48        500.000        2876.60     
  1253.42        500.000        2877.04     
  1252.36        500.000        2877.38     
  1251.30        500.000        2877.62     
  1250.24        500.000        2877.72     
  1249.18        500.000        2877.79     
  1248.12        500.000        2878.12     
  1247.06        500.000        2878.02     
  1246.00        500.000        2877.96     
  1244.94        500.000        2877.70     
  1243.88        500.000        2878.01     
  1242.82        500.000        2895.82     
  1241.76        500.000        2838.33     
  1240.70        500.000        2870.65     
  1239.64        500.000        2845.18     
  1238.58        500.000        2873.60     
  1237.52        500.000        2891.75     
  1236.46        500.000        2831.24     
  1235.40        500.000        2883.82     
  1234.34        500.000        2850.94     
  1233.28        500.000        2855.62     
  1232.22        500.000        2877.75     
  1231.16        500.000        2844.00     
  1230.10        500.000        3169.34     
  1229.04        500.000        2863.47     
  1227.98        500.000        2882.37     
  1226.92        500.000        2938.65     
  1225.85        500.000        2859.75     
  1224.79        500.000        2867.33     
  1223.73        500.000        2856.25     
  1222.67        500.000        2873.68     
  1221.61        500.000        2463.41     
  1220.55        500.000        2463.49     
  1219.49        500.000        2870.53     
  1218.43        500.000        2851.92     
  1217.37        500.000        2865.95     
  1216.31        500.000        2838.63     
  1215.25        500.000        2525.99     
  1214.19        500.000        2765.68     
  1213.13        500.000        2675.65     
  1212.07        500.000        2676.07     
  1211.01        500.000        2679.41     
  1209.95        500.000        2680.46     
  1208.89        500.000        2678.44     
  1207.83        500.000        2679.52     
  1206.77        500.000        2678.73     
  1205.71        500.000        2666.79     
  1204.65        500.000        2663.29     
  1203.59        500.000        2661.69     
  1202.53        500.000        2687.53     
  1201.47        500.000        2678.86     
  1200.41        500.000        2681.33     
  1199.35        500.000        2668.76     
  1198.29        500.000        2682.10     
  1197.23        500.000        2667.90     
  1196.16        500.000        2716.26     
  1195.10        500.000        2640.28     
  1194.04        500.000        2740.16     
  1192.98        500.000        2667.58     
  1191.92        500.000        2665.79     
  1190.86        500.000        2662.47     
  1189.80        500.000        2663.21     
  1188.74        500.000        2656.68     
  1187.68        500.000        2651.91     
  1186.62        500.000        2609.86     
  1185.56        500.000        2637.04     
  1184.50        500.000        2630.14     
  1183.44        500.000        2630.10     
  1182.38        500.000        2630.14     
  1181.32        500.000        2630.23     
  1180.26        500.000        2630.30     
  1179.20        500.000        2630.32     
  1178.14        500.000        2630.36     
  1177.08        500.000        2630.39     
  1176.02        500.000        2630.43     
  1174.96        500.000        2630.47     
  1173.90        500.000        2630.51     
  1172.84        500.000        2630.55     
  1171.78        500.000        2630.59     
  1170.72        500.000        2630.64     
  1169.66        500.000        2630.67     
  1168.60        500.000        2630.71     
  1167.54        500.000        2630.75     
  1166.48        500.000        2630.79     
  1165.41        500.000        2630.78     
  1164.35        500.000        2630.85     
  1163.29        500.000        2630.87     
  1162.23        500.000        2630.94     
  1161.17        500.000        2630.98     
  1160.11        500.000        2631.02     
  1159.05        500.000        2631.05     
  1157.99        500.000        2631.10     
  1156.93        500.000        2631.13     
  1155.87        500.000        2631.18     
  1154.81        500.000        2631.21     
  1153.75        500.000        2631.25     
  1152.69        500.000        2631.29     
  1151.63        500.000        2631.33     
  1150.57        500.000        2631.37     
  1149.51        500.000        2631.41     
  1148.45        500.000        2631.44     
  1147.39        500.000        2631.47     
  1146.33        500.000        2631.52     
  1145.27        500.000        2631.55     
  1144.21        500.000        2631.58     
  1143.15        500.000        2631.62     
  1142.09        500.000        2631.66     
  1141.03        500.000        2631.70     
  1139.97        500.000        2631.74     
  1138.91        500.000        2631.77     
  1137.85        500.000        2631.73     
  1136.79        500.000        2631.77     
  1135.72        500.000        2631.79     
  1134.66        500.000        2631.94     
  1133.60        500.000        2631.98     
  1132.54        500.000        2632.02     
  1131.48        500.000        2631.96     
  1130.42        500.000        2632.10     
  1129.36        500.000        2632.04     
  1128.30        500.000        2632.17     
  1127.24        500.000        2632.21     
  1126.18        500.000        2632.25     
  1125.12        500.000        2632.29     
  1124.06        500.000        2632.33     
  1123.00        500.000        2632.36     
  1121.94        500.000        2632.41     
  1120.88        500.000        2632.36     
  1119.82        500.000        2632.40     
  1118.76        500.000        2632.48     
  1117.70        500.000        2632.52     
  1116.64        500.000        2632.56     
  1115.58        500.000        2632.60     
  1114.52        500.000        2632.64     
  1113.46        500.000        2632.68     
  1112.40        500.000        2632.73     
  1111.34        500.000        2632.77     
  1110.28        500.000        2632.81     
  1109.22        500.000        2632.85     
  1108.16        500.000        2632.89     
  1107.10        500.000        2632.93     
  1106.04        500.000        2632.97     
  1104.97        500.000        2633.01     
  1103.91        500.000        2632.97     
  1102.85        500.000        2633.09     
  1101.79        500.000        2633.13     
  1100.73        500.000        2633.15     
  1099.67        500.000        2633.18     
  1098.61        500.000        2633.26     
  1097.55        500.000        2633.30     
  1096.49        500.000        2633.33     
  1095.43        500.000        2633.32     
  1094.37        500.000        2633.41     
  1093.31        500.000        2633.44     
  1092.25        500.000        2633.48     
  1091.19        500.000        2633.53     
  1090.13        500.000        2633.56     
  1089.07        500.000        2633.60     
  1088.01        500.000        2633.59     
  1086.95        500.000        2633.68     
  1085.89        500.000        2633.72     
  1084.83        500.000        2633.76     
  1083.77        500.000        2633.79     
  1082.71        500.000        2633.83     
  1081.65        500.000        2633.87     
  1080.59        500.000        2633.91     
  1079.53        500.000        2633.95     
  1078.47        500.000        2633.99     
  1077.41        500.000        2634.03     
  1076.35        500.000        2634.06     
  1075.28        500.000        2634.10     
  1074.22        500.000        2634.14     
  1073.16        500.000        2634.16     
  1072.10        500.000        2634.22     
  1071.04        500.000        2634.25     
  1069.98        500.000        2634.29     
  1068.92        500.000        2634.33     
  1067.86        500.000        2634.37     
  1066.80        500.000        2634.40     
  1065.74        500.000        2634.44     
  1064.68        500.000        2634.48     
  1063.62        500.000        2634.52     
  1062.56        500.000        2634.56     
  1061.50        500.000        2634.60     
  1060.44        500.000        2634.64     
  1059.38        500.000        2634.67     
  1058.32        500.000        2634.72     
  1057.26        500.000        2634.77     
  1056.20        500.000        2634.81     
  1055.14        500.000        2634.86     
  1054.08        500.000        2634.91     
  1053.02        500.000        2634.95     
  1051.96        500.000        2634.98     
  1050.90        500.000        2635.04     
  1049.84        500.000        2635.09     
  1048.78        500.000        2635.13     
  1047.72        500.000        2635.18     
  1046.66        500.000        2635.23     
  1045.60        500.000        2635.30     
  1044.53        500.000        2635.31     
  1043.47        500.000        2635.36     
  1042.41        500.000        2635.40     
  1041.35        500.000        2635.45     
  1040.29        500.000        2635.49     
  1039.23        500.000        2635.54     
  1038.17        500.000        2635.72     
  1037.11        500.000        2635.92     
  1036.05        500.000        2636.13     
  1034.99        500.000        2636.34     
  1033.93        500.000        2636.56     
  1032.87        500.000        2636.82     
  1031.81        500.000        2637.07     
  1030.75        500.000        2637.30     
  1029.69        500.000        2637.64     
  1028.63        500.000        2638.22     
  1027.57        500.000        2638.49     
  1026.51        500.000        2638.74     
  1025.45        500.000        2638.99     
  1024.39        500.000        2639.22     
  1023.33        500.000        2639.42     
  1022.27        500.000        2639.64     
  1021.21        500.000        2639.84     
  1020.15        500.000        2640.02     
  1019.09        500.000        2640.85     
  1018.03        500.000        2640.25     
  1016.97        500.000        2640.90     
  1015.91        500.000        2640.67     
  1014.84        500.000        2640.99     
  1013.78        500.000        2641.03     
  1012.72        500.000        2641.07     
  1011.66        500.000        2641.12     
  1010.60        500.000        2641.16     
  1009.54        500.000        2641.20     
  1008.48        500.000        2641.25     
  1007.42        500.000        2641.30     
  1006.36        500.000        2641.34     
  1005.30        500.000        2641.38     
  1004.24        500.000        2641.43     
  1003.18        500.000        2641.47     
  1002.12        500.000        2641.52     
  1001.06        500.000        2641.56     
