|6.6.6
Archiving\03_Data\fracLP/QFM_m1.25/EETA/EETA_6.tab                        
           1
T(K)    
  0.000000000000000E+000
  0.000000000000000E+000
           0
           3
T(K)           P(bar)         rho,kg/m3     
  2000.00        500.000        3616.67     
  1997.49        500.000        3617.05     
  1994.99        500.000        3617.43     
  1992.48        500.000        3617.81     
  1989.97        500.000        3618.20     
  1987.47        500.000        3618.58     
  1984.96        500.000        3618.96     
  1982.46        500.000        3619.34     
  1979.95        500.000        3619.72     
  1977.44        500.000        3620.10     
  1974.94        500.000        3620.48     
  1972.43        500.000        3620.86     
  1969.92        500.000        3621.24     
  1967.42        500.000        3621.62     
  1964.91        500.000        3622.00     
  1962.41        500.000        3622.38     
  1959.90        500.000        3622.75     
  1957.39        500.000        3623.13     
  1954.89        500.000        3623.51     
  1952.38        500.000        3623.89     
  1949.87        500.000        3624.27     
  1947.37        500.000        3624.65     
  1944.86        500.000        3625.03     
  1942.36        500.000        3625.40     
  1939.85        500.000        3625.78     
  1937.34        500.000        3626.16     
  1934.84        500.000        3626.54     
  1932.33        500.000        3626.92     
  1929.82        500.000        3627.29     
  1927.32        500.000        3627.67     
  1924.81        500.000        3628.05     
  1922.31        500.000        3628.43     
  1919.80        500.000        3628.80     
  1917.29        500.000        3629.18     
  1914.79        500.000        3629.56     
  1912.28        500.000        3629.93     
  1909.77        500.000        3630.31     
  1907.27        500.000        3630.69     
  1904.76        500.000        3631.06     
  1902.26        500.000        3631.44     
  1899.75        500.000        3631.81     
  1897.24        500.000        3632.19     
  1894.74        500.000        3632.57     
  1892.23        500.000        3632.94     
  1889.72        500.000        3633.32     
  1887.22        500.000        3633.69     
  1884.71        500.000        3634.07     
  1882.21        500.000        3634.44     
  1879.70        500.000        3634.82     
  1877.19        500.000        3635.19     
  1874.69        500.000        3635.57     
  1872.18        500.000        3635.94     
  1869.67        500.000        3636.31     
  1867.17        500.000        3636.69     
  1864.66        500.000        3637.06     
  1862.16        500.000        3637.44     
  1859.65        500.000        3637.81     
  1857.14        500.000        3638.18     
  1854.64        500.000        3638.56     
  1852.13        500.000        3638.93     
  1849.62        500.000        3639.31     
  1847.12        500.000        3639.68     
  1844.61        500.000        3640.05     
  1842.11        500.000        3640.42     
  1839.60        500.000        3640.80     
  1837.09        500.000        3641.17     
  1834.59        500.000        3641.54     
  1832.08        500.000        3641.92     
  1829.57        500.000        3642.29     
  1827.07        500.000        3642.66     
  1824.56        500.000        3643.03     
  1822.06        500.000        3643.40     
  1819.55        500.000        3643.78     
  1817.04        500.000        3644.15     
  1814.54        500.000        3644.52     
  1812.03        500.000        3644.89     
  1809.52        500.000        3645.26     
  1807.02        500.000        3645.63     
  1804.51        500.000        3646.00     
  1802.01        500.000        3646.37     
  1799.50        500.000        3646.75     
  1796.99        500.000        3647.12     
  1794.49        500.000        3647.49     
  1791.98        500.000        3647.86     
  1789.47        500.000        3648.23     
  1786.97        500.000        3648.60     
  1784.46        500.000        3648.97     
  1781.95        500.000        3649.34     
  1779.45        500.000        3649.71     
  1776.94        500.000        3650.08     
  1774.44        500.000        3650.45     
  1771.93        500.000        3650.82     
  1769.42        500.000        3651.18     
  1766.92        500.000        3651.55     
  1764.41        500.000        3651.92     
  1761.90        500.000        3652.29     
  1759.40        500.000        3652.66     
  1756.89        500.000        3653.03     
  1754.39        500.000        3653.40     
  1751.88        500.000        3653.77     
  1749.37        500.000        3654.13     
  1746.87        500.000        3654.50     
  1744.36        500.000        3654.87     
  1741.85        500.000        3655.24     
  1739.35        500.000        3655.61     
  1736.84        500.000        3655.97     
  1734.34        500.000        3656.34     
  1731.83        500.000        3656.71     
  1729.32        500.000        3657.08     
  1726.82        500.000        3657.44     
  1724.31        500.000        3657.81     
  1721.80        500.000        3658.18     
  1719.30        500.000        3658.54     
  1716.79        500.000        3658.91     
  1714.29        500.000        3659.28     
  1711.78        500.000        3659.64     
  1709.27        500.000        3660.01     
  1706.77        500.000        3660.38     
  1704.26        500.000        3660.74     
  1701.75        500.000        3661.11     
  1699.25        500.000        3661.47     
  1696.74        500.000        3661.84     
  1694.24        500.000        3662.20     
  1691.73        500.000        3662.57     
  1689.22        500.000        3662.94     
  1686.72        500.000        3663.30     
  1684.21        500.000        3663.67     
  1681.70        500.000        3664.03     
  1679.20        500.000        3664.40     
  1676.69        500.000        3664.76     
  1674.19        500.000        3665.12     
  1671.68        500.000        3665.49     
  1669.17        500.000        3665.85     
  1666.67        500.000        3666.22     
  1664.16        500.000        3666.58     
  1661.65        500.000        3555.03     
  1659.15        500.000        2895.42     
  1656.64        500.000        2895.93     
  1654.14        500.000        2896.43     
  1651.63        500.000        2896.93     
  1649.12        500.000        2897.44     
  1646.62        500.000        4511.82     
  1644.11        500.000        4512.70     
  1641.60        500.000        4513.00     
  1639.10        500.000        4513.11     
  1636.59        500.000        4513.92     
  1634.09        500.000        4513.76     
  1631.58        500.000        4513.25     
  1629.07        500.000        4514.91     
  1626.57        500.000        4514.75     
  1624.06        500.000        4515.30     
  1621.55        500.000        4515.73     
  1619.05        500.000        4515.78     
  1616.54        500.000        4515.56     
  1614.04        500.000        4516.29     
  1611.53        500.000        4516.34     
  1609.02        500.000        4516.63     
  1606.52        500.000        4515.47     
  1604.01        500.000        4516.58     
  1601.50        500.000        4517.55     
  1599.00        500.000        3397.39     
  1596.49        500.000        3396.36     
  1593.98        500.000        3398.57     
  1591.48        500.000        3400.62     
  1588.97        500.000        3402.64     
  1586.47        500.000        3404.23     
  1583.96        500.000        3406.85     
  1581.45        500.000        3408.74     
  1578.95        500.000        3410.37     
  1576.44        500.000        3410.96     
  1573.93        500.000        3420.46     
  1571.43        500.000        2885.80     
  1568.92        500.000        3417.42     
  1566.42        500.000        3419.97     
  1563.91        500.000        3421.71     
  1561.40        500.000        3422.72     
  1558.90        500.000        3425.99     
  1556.39        500.000        3427.34     
  1553.88        500.000        3429.32     
  1551.38        500.000        3431.06     
  1548.87        500.000        3434.22     
  1546.37        500.000        3435.25     
  1543.86        500.000        3437.18     
  1541.35        500.000        3438.74     
  1538.85        500.000        3434.73     
  1536.34        500.000        3286.68     
  1533.83        500.000        3286.95     
  1531.33        500.000        3287.91     
  1528.82        500.000        3289.42     
  1526.32        500.000        3289.90     
  1523.81        500.000        3291.28     
  1521.30        500.000        3292.97     
  1518.80        500.000        3292.80     
  1516.29        500.000        3300.23     
  1513.78        500.000        3298.26     
  1511.28        500.000        3296.63     
  1508.77        500.000        3297.76     
  1506.27        500.000        3298.27     
  1503.76        500.000        3333.02     
  1501.25        500.000        3301.05     
  1498.75        500.000        3304.08     
  1496.24        500.000        3303.88     
  1493.73        500.000        3304.48     
  1491.23        500.000        3305.72     
  1488.72        500.000        3307.21     
  1486.22        500.000        3308.72     
  1483.71        500.000        3299.35     
  1481.20        500.000        3296.05     
  1478.70        500.000        3297.15     
  1476.19        500.000        3298.92     
  1473.68        500.000        3300.69     
  1471.18        500.000        3302.42     
  1468.67        500.000        3303.33     
  1466.17        500.000        3305.63     
  1463.66        500.000        3287.14     
  1461.15        500.000        3287.36     
  1458.65        500.000        3289.67     
  1456.14        500.000        3292.08     
  1453.63        500.000        3294.57     
  1451.13        500.000        3297.08     
  1448.62        500.000        3299.73     
  1446.12        500.000        3301.97     
  1443.61        500.000        3304.52     
  1441.10        500.000        3307.64     
  1438.60        500.000        3309.79     
  1436.09        500.000        3312.42     
  1433.58        500.000        3314.68     
  1431.08        500.000        3317.61     
  1428.57        500.000        3320.44     
  1426.07        500.000        3322.69     
  1423.56        500.000        3325.46     
  1421.05        500.000        3328.53     
  1418.55        500.000        3330.79     
  1416.04        500.000        3333.56     
  1413.53        500.000        3336.53     
  1411.03        500.000        3338.90     
  1408.52        500.000        3341.68     
  1406.02        500.000        3344.51     
  1403.51        500.000        3347.28     
  1401.00        500.000        3174.14     
  1398.50        500.000        3161.86     
  1395.99        500.000        3165.23     
  1393.48        500.000        3168.51     
  1390.98        500.000        3171.68     
  1388.47        500.000        3174.90     
  1385.96        500.000        3178.52     
  1383.46        500.000        3181.60     
  1380.95        500.000        3185.28     
  1378.45        500.000        3188.62     
  1375.94        500.000        3192.12     
  1373.43        500.000        3195.65     
  1370.93        500.000        3198.97     
  1368.42        500.000        3202.31     
  1365.91        500.000        3205.95     
  1363.41        500.000        3209.64     
  1360.90        500.000        3213.63     
  1358.40        500.000        3246.62     
  1355.89        500.000        3256.49     
  1353.38        500.000        3261.04     
  1350.88        500.000        3265.73     
  1348.37        500.000        3270.12     
  1345.86        500.000        3274.76     
  1343.36        500.000        3278.93     
  1340.85        500.000        3283.25     
  1338.35        500.000        3284.93     
  1335.84        500.000        3289.61     
  1333.33        500.000        3295.04     
  1330.83        500.000        3292.33     
  1328.32        500.000        3302.42     
  1325.81        500.000        3304.71     
  1323.31        500.000        3309.53     
  1320.80        500.000        3311.98     
  1318.30        500.000        3315.51     
  1315.79        500.000        3318.60     
  1313.28        500.000        3321.46     
  1310.78        500.000        3342.30     
  1308.27        500.000        3372.46     
  1305.76        500.000        3374.61     
  1303.26        500.000        3376.76     
  1300.75        500.000        3378.67     
  1298.25        500.000        3380.81     
  1295.74        500.000        3382.62     
  1293.23        500.000        3384.49     
  1290.73        500.000        3386.13     
  1288.22        500.000        3388.44     
  1285.71        500.000        3389.50     
  1283.21        500.000        3391.05     
  1280.70        500.000        3392.67     
  1278.20        500.000        3393.82     
  1275.69        500.000        3395.58     
  1273.18        500.000        3396.47     
  1270.68        500.000        3397.23     
  1268.17        500.000        3398.41     
  1265.66        500.000        3399.67     
  1263.16        500.000        2915.59     
  1260.65        500.000        2876.29     
  1258.15        500.000        2879.49     
  1255.64        500.000        2882.12     
  1253.13        500.000        2884.06     
  1250.63        500.000        2886.35     
  1248.12        500.000        2887.43     
  1245.61        500.000        2888.63     
  1243.11        500.000        2889.39     
  1240.60        500.000        2889.77     
  1238.10        500.000        2890.41     
  1235.59        500.000        2890.36     
  1233.08        500.000        2890.27     
  1230.58        500.000        2889.76     
  1228.07        500.000        2889.07     
  1225.56        500.000        2888.72     
  1223.06        500.000        2887.65     
  1220.55        500.000        2883.93     
  1218.05        500.000        2883.45     
  1215.54        500.000        2882.96     
  1213.03        500.000        2882.83     
  1210.53        500.000        2728.31     
  1208.02        500.000        2692.20     
  1205.51        500.000        2691.83     
  1203.01        500.000        2688.03     
  1200.50        500.000        2687.81     
  1197.99        500.000        2692.31     
  1195.49        500.000        2671.19     
  1192.98        500.000        2754.18     
  1190.48        500.000        2669.17     
  1187.97        500.000        2660.32     
  1185.46        500.000        2637.47     
  1182.96        500.000        2637.54     
  1180.45        500.000        2637.79     
  1177.94        500.000        2637.82     
  1175.44        500.000        2637.91     
  1172.93        500.000        2637.91     
  1170.43        500.000        2635.24     
  1167.92        500.000        2638.79     
  1165.41        500.000        2638.17     
  1162.91        500.000        2638.18     
  1160.40        500.000        2638.89     
  1157.89        500.000        2638.93     
  1155.39        500.000        2638.95     
  1152.88        500.000        2639.04     
  1150.38        500.000        2639.10     
  1147.87        500.000        2638.69     
  1145.36        500.000        2638.78     
  1142.86        500.000        2638.86     
  1140.35        500.000        2638.95     
  1137.84        500.000        2639.04     
  1135.34        500.000        2639.13     
  1132.83        500.000        2639.23     
  1130.33        500.000        2639.30     
  1127.82        500.000        2639.39     
  1125.31        500.000        2639.51     
  1122.81        500.000        2639.60     
  1120.30        500.000        2639.70     
  1117.79        500.000        2639.75     
  1115.29        500.000        2639.84     
  1112.78        500.000        2639.93     
  1110.28        500.000        2640.02     
  1107.77        500.000        2640.11     
  1105.26        500.000        2640.22     
  1102.76        500.000        2640.30     
  1100.25        500.000        2640.39     
  1097.74        500.000        2640.48     
  1095.24        500.000        2640.57     
  1092.73        500.000        2638.75     
  1090.23        500.000        2640.75     
  1087.72        500.000        2640.85     
  1085.21        500.000        2640.94     
  1082.71        500.000        2641.04     
  1080.20        500.000        2641.13     
  1077.69        500.000        2641.22     
  1075.19        500.000        2641.31     
  1072.68        500.000        2641.41     
  1070.18        500.000        2641.50     
  1067.67        500.000        2641.59     
  1065.16        500.000        2641.63     
  1062.66        500.000        2641.77     
  1060.15        500.000        2641.87     
  1057.64        500.000        2641.97     
  1055.14        500.000        2642.04     
  1052.63        500.000        2642.16     
  1050.13        500.000        2642.24     
  1047.62        500.000        2642.24     
  1045.11        500.000        2642.44     
  1042.61        500.000        2642.52     
  1040.10        500.000        2642.62     
  1037.59        500.000        2642.72     
  1035.09        500.000        2642.80     
  1032.58        500.000        2642.90     
  1030.08        500.000        2643.05     
  1027.57        500.000        2643.14     
  1025.06        500.000        2643.23     
  1022.56        500.000        2643.32     
  1020.05        500.000        2643.48     
  1017.54        500.000        2642.42     
  1015.04        500.000        2642.56     
  1012.53        500.000        2642.66     
  1010.03        500.000        2642.08     
  1007.52        500.000        2643.88     
  1005.01        500.000        2642.92     
  1002.51        500.000        2644.07     
  1000.00        500.000        2643.12     
