|6.6.6
Archiving\03_Data\fracLP/QFM_m3.5/EETA/EETA_6.tab                         
           1
T(K)    
  0.000000000000000E+000
  0.000000000000000E+000
           0
           3
T(K)           P(bar)         rho,kg/m3     
  2000.00        500.000        3616.67     
  1997.49        500.000        3617.05     
  1994.99        500.000        3617.43     
  1992.48        500.000        3617.81     
  1989.97        500.000        3618.20     
  1987.47        500.000        3618.58     
  1984.96        500.000        3618.96     
  1982.46        500.000        3619.34     
  1979.95        500.000        3619.72     
  1977.44        500.000        3620.10     
  1974.94        500.000        3620.48     
  1972.43        500.000        3620.86     
  1969.92        500.000        3621.24     
  1967.42        500.000        3621.62     
  1964.91        500.000        3622.00     
  1962.41        500.000        3622.38     
  1959.90        500.000        3622.75     
  1957.39        500.000        3623.13     
  1954.89        500.000        3623.51     
  1952.38        500.000        3623.89     
  1949.87        500.000        3624.27     
  1947.37        500.000        3624.65     
  1944.86        500.000        3625.03     
  1942.36        500.000        3625.40     
  1939.85        500.000        3625.78     
  1937.34        500.000        3626.16     
  1934.84        500.000        3626.54     
  1932.33        500.000        3626.92     
  1929.82        500.000        3627.29     
  1927.32        500.000        3627.67     
  1924.81        500.000        3628.05     
  1922.31        500.000        3628.43     
  1919.80        500.000        3628.80     
  1917.29        500.000        3629.18     
  1914.79        500.000        3629.56     
  1912.28        500.000        3629.93     
  1909.77        500.000        3630.31     
  1907.27        500.000        3630.69     
  1904.76        500.000        3631.06     
  1902.26        500.000        3631.44     
  1899.75        500.000        3631.81     
  1897.24        500.000        3632.19     
  1894.74        500.000        3632.57     
  1892.23        500.000        3632.94     
  1889.72        500.000        3633.32     
  1887.22        500.000        3633.69     
  1884.71        500.000        3634.07     
  1882.21        500.000        3634.44     
  1879.70        500.000        3634.82     
  1877.19        500.000        3635.19     
  1874.69        500.000        3635.57     
  1872.18        500.000        3635.94     
  1869.67        500.000        3636.31     
  1867.17        500.000        3636.69     
  1864.66        500.000        3637.06     
  1862.16        500.000        3637.44     
  1859.65        500.000        3637.81     
  1857.14        500.000        3638.18     
  1854.64        500.000        3638.56     
  1852.13        500.000        3638.93     
  1849.62        500.000        3639.31     
  1847.12        500.000        3639.68     
  1844.61        500.000        3640.05     
  1842.11        500.000        3640.42     
  1839.60        500.000        3640.80     
  1837.09        500.000        3641.17     
  1834.59        500.000        3641.54     
  1832.08        500.000        3641.92     
  1829.57        500.000        3642.29     
  1827.07        500.000        3642.66     
  1824.56        500.000        3643.03     
  1822.06        500.000        3643.40     
  1819.55        500.000        3643.78     
  1817.04        500.000        3644.15     
  1814.54        500.000        3644.52     
  1812.03        500.000        3644.89     
  1809.52        500.000        3645.26     
  1807.02        500.000        3645.63     
  1804.51        500.000        3646.00     
  1802.01        500.000        3646.37     
  1799.50        500.000        3646.75     
  1796.99        500.000        3647.12     
  1794.49        500.000        3647.49     
  1791.98        500.000        3647.86     
  1789.47        500.000        3648.23     
  1786.97        500.000        3648.60     
  1784.46        500.000        3648.97     
  1781.95        500.000        3649.34     
  1779.45        500.000        3649.71     
  1776.94        500.000        3650.08     
  1774.44        500.000        3650.45     
  1771.93        500.000        3650.82     
  1769.42        500.000        3651.18     
  1766.92        500.000        3651.55     
  1764.41        500.000        3651.92     
  1761.90        500.000        3652.29     
  1759.40        500.000        3652.66     
  1756.89        500.000        3653.03     
  1754.39        500.000        3653.40     
  1751.88        500.000        3653.77     
  1749.37        500.000        3654.13     
  1746.87        500.000        3654.50     
  1744.36        500.000        3654.87     
  1741.85        500.000        3655.24     
  1739.35        500.000        3655.61     
  1736.84        500.000        3655.97     
  1734.34        500.000        3656.34     
  1731.83        500.000        3656.71     
  1729.32        500.000        3657.08     
  1726.82        500.000        3657.44     
  1724.31        500.000        3657.81     
  1721.80        500.000        3658.18     
  1719.30        500.000        3658.54     
  1716.79        500.000        3658.91     
  1714.29        500.000        3659.28     
  1711.78        500.000        3659.64     
  1709.27        500.000        3660.01     
  1706.77        500.000        3660.38     
  1704.26        500.000        3660.74     
  1701.75        500.000        3661.11     
  1699.25        500.000        3661.47     
  1696.74        500.000        3661.84     
  1694.24        500.000        3662.20     
  1691.73        500.000        3662.57     
  1689.22        500.000        3662.94     
  1686.72        500.000        3663.30     
  1684.21        500.000        3663.67     
  1681.70        500.000        3664.03     
  1679.20        500.000        3664.40     
  1676.69        500.000        3664.76     
  1674.19        500.000        3665.12     
  1671.68        500.000        3665.49     
  1669.17        500.000        3665.85     
  1666.67        500.000        3666.22     
  1664.16        500.000        3666.58     
  1661.65        500.000        3666.95     
  1659.15        500.000        3667.31     
  1656.64        500.000        3667.67     
  1654.14        500.000        3668.04     
  1651.63        500.000        3668.40     
  1649.12        500.000        3668.76     
  1646.62        500.000        3669.13     
  1644.11        500.000        3669.49     
  1641.60        500.000        3670.17     
  1639.10        500.000        3678.75     
  1636.59        500.000        3679.04     
  1634.09        500.000        3679.38     
  1631.58        500.000        3679.57     
  1629.07        500.000        3679.91     
  1626.57        500.000        3680.19     
  1624.06        500.000        3680.52     
  1621.55        500.000        3680.75     
  1619.05        500.000        3599.81     
  1616.54        500.000        4507.15     
  1614.04        500.000        3437.57     
  1611.53        500.000        3404.48     
  1609.02        500.000        3408.19     
  1606.52        500.000        3410.36     
  1604.01        500.000        3410.90     
  1601.50        500.000        3412.32     
  1599.00        500.000        3414.85     
  1596.49        500.000        3416.74     
  1593.98        500.000        3418.25     
  1591.48        500.000        3421.81     
  1588.97        500.000        3422.38     
  1586.47        500.000        3426.99     
  1583.96        500.000        3425.56     
  1581.45        500.000        3428.28     
  1578.95        500.000        3429.66     
  1576.44        500.000        3431.89     
  1573.93        500.000        3433.41     
  1571.43        500.000        3433.97     
  1568.92        500.000        3437.04     
  1566.42        500.000        3437.82     
  1563.91        500.000        3438.75     
  1561.40        500.000        3440.44     
  1558.90        500.000        3443.71     
  1556.39        500.000        3445.29     
  1553.88        500.000        3448.99     
  1551.38        500.000        3449.93     
  1548.87        500.000        3450.53     
  1546.37        500.000        3455.56     
  1543.86        500.000        3469.52     
  1541.35        500.000        3456.76     
  1538.85        500.000        3458.16     
  1536.34        500.000        3450.05     
  1533.83        500.000        3295.79     
  1531.33        500.000        3294.62     
  1528.82        500.000        3299.00     
  1526.32        500.000        3295.95     
  1523.81        500.000        3299.28     
  1521.30        500.000        3298.75     
  1518.80        500.000        3299.16     
  1516.29        500.000        3299.67     
  1513.78        500.000        3301.12     
  1511.28        500.000        3302.53     
  1508.77        500.000        3303.64     
  1506.27        500.000        3304.79     
  1503.76        500.000        3306.58     
  1501.25        500.000        3306.66     
  1498.75        500.000        3295.89     
  1496.24        500.000        3294.43     
  1493.73        500.000        3295.34     
  1491.23        500.000        3304.07     
  1488.72        500.000        3299.65     
  1486.22        500.000        3300.79     
  1483.71        500.000        3302.77     
  1481.20        500.000        3304.48     
  1478.70        500.000        3305.82     
  1476.19        500.000        3307.05     
  1473.68        500.000        3309.11     
  1471.18        500.000        3310.93     
  1468.67        500.000        3311.75     
  1466.17        500.000        3292.08     
  1463.66        500.000        3291.86     
  1461.15        500.000        3295.88     
  1458.65        500.000        3299.16     
  1456.14        500.000        3301.43     
  1453.63        500.000        3303.80     
  1451.13        500.000        3305.88     
  1448.62        500.000        3308.15     
  1446.12        500.000        3310.55     
  1443.61        500.000        3313.21     
  1441.10        500.000        3315.17     
  1438.60        500.000        3317.43     
  1436.09        500.000        3319.79     
  1433.58        500.000        3322.14     
  1431.08        500.000        3324.49     
  1428.57        500.000        3327.14     
  1426.07        500.000        3329.45     
  1423.56        500.000        3331.78     
  1421.05        500.000        3334.34     
  1418.55        500.000        3336.76     
  1416.04        500.000        3339.17     
  1413.53        500.000        3341.72     
  1411.03        500.000        3344.52     
  1408.52        500.000        3186.87     
  1406.02        500.000        3152.86     
  1403.51        500.000        3156.01     
  1401.00        500.000        3159.14     
  1398.50        500.000        3162.29     
  1395.99        500.000        3165.65     
  1393.48        500.000        3168.92     
  1390.98        500.000        3172.13     
  1388.47        500.000        3175.18     
  1385.96        500.000        3178.46     
  1383.46        500.000        3181.59     
  1380.95        500.000        3184.86     
  1378.45        500.000        3188.33     
  1375.94        500.000        3191.70     
  1373.43        500.000        3194.97     
  1370.93        500.000        3198.61     
  1368.42        500.000        3201.46     
  1365.91        500.000        3204.86     
  1363.41        500.000        3207.91     
  1360.90        500.000        3211.71     
  1358.40        500.000        3215.00     
  1355.89        500.000        3218.48     
  1353.38        500.000        3221.64     
  1350.88        500.000        3225.22     
  1348.37        500.000        3228.64     
  1345.86        500.000        3231.96     
  1343.36        500.000        3235.32     
  1340.85        500.000        3238.45     
  1338.35        500.000        3263.27     
  1335.84        500.000        3281.99     
  1333.33        500.000        3285.41     
  1330.83        500.000        3288.32     
  1328.32        500.000        3291.46     
  1325.81        500.000        3293.86     
  1323.31        500.000        3300.57     
  1320.80        500.000        3296.49     
  1318.30        500.000        3302.10     
  1315.79        500.000        3304.99     
  1313.28        500.000        3307.12     
  1310.78        500.000        3333.65     
  1308.27        500.000        3349.88     
  1305.76        500.000        3350.99     
  1303.26        500.000        3353.91     
  1300.75        500.000        3356.20     
  1298.25        500.000        3357.84     
  1295.74        500.000        3358.68     
  1293.23        500.000        3361.08     
  1290.73        500.000        3363.44     
  1288.22        500.000        3363.39     
  1285.71        500.000        3365.01     
  1283.21        500.000        3366.28     
  1280.70        500.000        3367.06     
  1278.20        500.000        3368.97     
  1275.69        500.000        3369.57     
  1273.18        500.000        3369.96     
  1270.68        500.000        3370.92     
  1268.17        500.000        3371.29     
  1265.66        500.000        2856.55     
  1263.16        500.000        2858.78     
  1260.65        500.000        2862.09     
  1258.15        500.000        2863.69     
  1255.64        500.000        2865.51     
  1253.13        500.000        2866.91     
  1250.63        500.000        2868.43     
  1248.12        500.000        2870.05     
  1245.61        500.000        2870.93     
  1243.11        500.000        2871.81     
  1240.60        500.000        2872.17     
  1238.10        500.000        2872.69     
  1235.59        500.000        2873.56     
  1233.08        500.000        2874.01     
  1230.58        500.000        2874.90     
  1228.07        500.000        2874.90     
  1225.56        500.000        2874.70     
  1223.06        500.000        2874.08     
  1220.55        500.000        2872.91     
  1218.05        500.000        2872.94     
  1215.54        500.000        2872.02     
  1213.03        500.000        2687.66     
  1210.53        500.000        2686.06     
  1208.02        500.000        2681.25     
  1205.51        500.000        2682.69     
  1203.01        500.000        2678.63     
  1200.50        500.000        2682.67     
  1197.99        500.000        2669.59     
  1195.49        500.000        2665.90     
  1192.98        500.000        2655.84     
  1190.48        500.000        2635.01     
  1187.97        500.000        2630.05     
  1185.46        500.000        2630.16     
  1182.96        500.000        2630.27     
  1180.45        500.000        2630.34     
  1177.94        500.000        2630.49     
  1175.44        500.000        2630.61     
  1172.93        500.000        2630.73     
  1170.43        500.000        2630.83     
  1167.92        500.000        2630.94     
  1165.41        500.000        2631.01     
  1162.91        500.000        2631.15     
  1160.40        500.000        2631.20     
  1157.89        500.000        2631.37     
  1155.39        500.000        2631.48     
  1152.88        500.000        2631.59     
  1150.38        500.000        2631.70     
  1147.87        500.000        2631.81     
  1145.36        500.000        2631.90     
  1142.86        500.000        2632.03     
  1140.35        500.000        2632.14     
  1137.84        500.000        2632.24     
  1135.34        500.000        2631.66     
  1132.83        500.000        2632.35     
  1130.33        500.000        2632.47     
  1127.82        500.000        2632.60     
  1125.31        500.000        2632.71     
  1122.81        500.000        2632.84     
  1120.30        500.000        2632.95     
  1117.79        500.000        2633.05     
  1115.29        500.000        2633.20     
  1112.78        500.000        2633.31     
  1110.28        500.000        2633.41     
  1107.77        500.000        2633.49     
  1105.26        500.000        2631.50     
  1102.76        500.000        2633.71     
  1100.25        500.000        2633.82     
  1097.74        500.000        2633.93     
  1095.24        500.000        2634.04     
  1092.73        500.000        2634.15     
  1090.23        500.000        2634.27     
  1087.72        500.000        2634.37     
  1085.21        500.000        2634.48     
  1082.71        500.000        2634.47     
  1080.20        500.000        2634.34     
  1077.69        500.000        2633.51     
  1075.19        500.000        2632.38     
  1072.68        500.000        2632.81     
  1070.18        500.000        2632.15     
  1067.67        500.000        2632.16     
  1065.16        500.000        2632.21     
  1062.66        500.000        2632.27     
  1060.15        500.000        2632.32     
  1057.64        500.000        2632.65     
  1055.14        500.000        2632.45     
  1052.63        500.000        2632.51     
  1050.13        500.000        2632.58     
  1047.62        500.000        2632.65     
  1045.11        500.000        2633.00     
  1042.61        500.000        2633.04     
  1040.10        500.000        2632.87     
  1037.59        500.000        2632.94     
  1035.09        500.000        2633.01     
  1032.58        500.000        2633.02     
  1030.08        500.000        2633.10     
  1027.57        500.000        2633.24     
  1025.06        500.000        2633.32     
  1022.56        500.000        2633.40     
  1020.05        500.000        2633.48     
  1017.54        500.000        2633.56     
  1015.04        500.000        2633.64     
  1012.53        500.000        2633.72     
  1010.03        500.000        2633.80     
  1007.52        500.000        2633.89     
  1005.01        500.000        2633.97     
  1002.51        500.000        2634.05     
  1000.00        500.000        2634.13     
