|6.6.6
Archiving\03_Data\fracLP/QFM_m3.75/TIS/TIS_6.tab                          
           1
T(K)    
  0.000000000000000E+000
  0.000000000000000E+000
           0
           3
T(K)           P(bar)         rho,kg/m3     
  2000.00        500.000        3584.12     
  1997.49        500.000        3584.50     
  1994.99        500.000        3584.87     
  1992.48        500.000        3585.25     
  1989.97        500.000        3585.62     
  1987.47        500.000        3586.00     
  1984.96        500.000        3586.37     
  1982.46        500.000        3586.75     
  1979.95        500.000        3587.12     
  1977.44        500.000        3587.50     
  1974.94        500.000        3587.87     
  1972.43        500.000        3588.25     
  1969.92        500.000        3588.62     
  1967.42        500.000        3589.00     
  1964.91        500.000        3589.37     
  1962.41        500.000        3589.75     
  1959.90        500.000        3590.12     
  1957.39        500.000        3590.49     
  1954.89        500.000        3590.87     
  1952.38        500.000        3591.24     
  1949.87        500.000        3591.61     
  1947.37        500.000        3591.99     
  1944.86        500.000        3592.36     
  1942.36        500.000        3592.73     
  1939.85        500.000        3593.11     
  1937.34        500.000        3593.48     
  1934.84        500.000        3593.85     
  1932.33        500.000        3594.22     
  1929.82        500.000        3594.60     
  1927.32        500.000        3594.97     
  1924.81        500.000        3595.34     
  1922.31        500.000        3595.71     
  1919.80        500.000        3596.08     
  1917.29        500.000        3596.46     
  1914.79        500.000        3596.83     
  1912.28        500.000        3597.20     
  1909.77        500.000        3597.57     
  1907.27        500.000        3597.94     
  1904.76        500.000        3598.31     
  1902.26        500.000        3598.68     
  1899.75        500.000        3599.05     
  1897.24        500.000        3599.42     
  1894.74        500.000        3599.79     
  1892.23        500.000        3600.17     
  1889.72        500.000        3600.54     
  1887.22        500.000        3600.91     
  1884.71        500.000        3601.28     
  1882.21        500.000        3601.65     
  1879.70        500.000        3602.02     
  1877.19        500.000        3602.39     
  1874.69        500.000        3602.75     
  1872.18        500.000        3603.12     
  1869.67        500.000        3603.49     
  1867.17        500.000        3603.86     
  1864.66        500.000        3604.23     
  1862.16        500.000        3604.60     
  1859.65        500.000        3604.97     
  1857.14        500.000        3605.34     
  1854.64        500.000        3605.71     
  1852.13        500.000        3606.07     
  1849.62        500.000        3606.44     
  1847.12        500.000        3606.81     
  1844.61        500.000        3607.18     
  1842.11        500.000        3607.55     
  1839.60        500.000        3607.91     
  1837.09        500.000        3608.28     
  1834.59        500.000        3608.65     
  1832.08        500.000        3609.02     
  1829.57        500.000        3609.38     
  1827.07        500.000        3609.75     
  1824.56        500.000        3610.12     
  1822.06        500.000        3610.49     
  1819.55        500.000        3610.85     
  1817.04        500.000        3611.22     
  1814.54        500.000        3611.59     
  1812.03        500.000        3611.95     
  1809.52        500.000        3612.32     
  1807.02        500.000        3612.68     
  1804.51        500.000        3613.05     
  1802.01        500.000        3613.42     
  1799.50        500.000        3613.78     
  1796.99        500.000        3614.15     
  1794.49        500.000        3614.51     
  1791.98        500.000        3614.88     
  1789.47        500.000        3615.24     
  1786.97        500.000        3615.61     
  1784.46        500.000        3615.97     
  1781.95        500.000        3616.34     
  1779.45        500.000        3616.70     
  1776.94        500.000        3617.07     
  1774.44        500.000        3617.43     
  1771.93        500.000        3617.80     
  1769.42        500.000        3618.16     
  1766.92        500.000        3618.53     
  1764.41        500.000        3618.89     
  1761.90        500.000        3619.25     
  1759.40        500.000        3619.62     
  1756.89        500.000        3619.98     
  1754.39        500.000        3620.34     
  1751.88        500.000        3620.71     
  1749.37        500.000        3621.07     
  1746.87        500.000        3621.43     
  1744.36        500.000        3621.80     
  1741.85        500.000        3622.16     
  1739.35        500.000        3622.52     
  1736.84        500.000        3622.89     
  1734.34        500.000        3623.25     
  1731.83        500.000        3623.61     
  1729.32        500.000        3623.97     
  1726.82        500.000        3624.33     
  1724.31        500.000        3624.70     
  1721.80        500.000        3625.06     
  1719.30        500.000        3625.42     
  1716.79        500.000        3625.78     
  1714.29        500.000        3626.14     
  1711.78        500.000        3626.51     
  1709.27        500.000        3626.87     
  1706.77        500.000        3627.23     
  1704.26        500.000        3627.59     
  1701.75        500.000        3627.95     
  1699.25        500.000        3628.31     
  1696.74        500.000        3628.67     
  1694.24        500.000        3629.03     
  1691.73        500.000        3629.39     
  1689.22        500.000        3629.75     
  1686.72        500.000        3630.11     
  1684.21        500.000        3630.47     
  1681.70        500.000        3630.83     
  1679.20        500.000        3631.19     
  1676.69        500.000        3631.55     
  1674.19        500.000        3632.41     
  1671.68        500.000        3632.40     
  1669.17        500.000        3641.46     
  1666.67        500.000        3641.75     
  1664.16        500.000        3642.04     
  1661.65        500.000        3642.30     
  1659.15        500.000        3642.60     
  1656.64        500.000        3642.89     
  1654.14        500.000        3558.58     
  1651.63        500.000        4506.05     
  1649.12        500.000        3403.27     
  1646.62        500.000        3402.26     
  1644.11        500.000        3404.23     
  1641.60        500.000        3407.06     
  1639.10        500.000        3408.19     
  1636.59        500.000        3410.50     
  1634.09        500.000        3412.83     
  1631.58        500.000        3414.74     
  1629.07        500.000        3416.53     
  1626.57        500.000        3420.34     
  1624.06        500.000        3420.38     
  1621.55        500.000        3424.80     
  1619.05        500.000        3423.30     
  1616.54        500.000        3427.97     
  1614.04        500.000        3430.87     
  1611.53        500.000        3434.11     
  1609.02        500.000        3427.62     
  1606.52        500.000        3436.23     
  1604.01        500.000        3438.34     
  1601.50        500.000        3440.43     
  1599.00        500.000        3443.62     
  1596.49        500.000        3445.11     
  1593.98        500.000        3447.05     
  1591.48        500.000        3448.20     
  1588.97        500.000        3451.28     
  1586.47        500.000        3453.01     
  1583.96        500.000        3455.48     
  1581.45        500.000        3458.01     
  1578.95        500.000        3458.47     
  1576.44        500.000        3462.35     
  1573.93        500.000        3465.48     
  1571.43        500.000        3474.35     
  1568.92        500.000        4522.03     
  1566.42        500.000        3476.36     
  1563.91        500.000        3471.65     
  1561.40        500.000        3472.16     
  1558.90        500.000        3476.48     
  1556.39        500.000        3478.31     
  1553.88        500.000        3482.05     
  1551.38        500.000        3484.19     
  1548.87        500.000        3484.82     
  1546.37        500.000        3487.51     
  1543.86        500.000        3490.02     
  1541.35        500.000        3491.97     
  1538.85        500.000        3492.09     
  1536.34        500.000        3497.06     
  1533.83        500.000        3496.06     
  1531.33        500.000        3499.29     
  1528.82        500.000        3499.79     
  1526.32        500.000        3503.09     
  1523.81        500.000        3506.59     
  1521.30        500.000        3507.80     
  1518.80        500.000        3509.88     
  1516.29        500.000        3512.05     
  1513.78        500.000        3515.75     
  1511.28        500.000        3516.05     
  1508.77        500.000        3518.53     
  1506.27        500.000        3520.66     
  1503.76        500.000        3522.90     
  1501.25        500.000        3399.85     
  1498.75        500.000        3323.21     
  1496.24        500.000        3324.41     
  1493.73        500.000        3325.74     
  1491.23        500.000        3353.47     
  1488.72        500.000        3326.21     
  1486.22        500.000        3313.68     
  1483.71        500.000        3378.31     
  1481.20        500.000        3317.22     
  1478.70        500.000        3319.97     
  1476.19        500.000        3325.66     
  1473.68        500.000        3327.94     
  1471.18        500.000        3328.42     
  1468.67        500.000        3303.19     
  1466.17        500.000        3304.26     
  1463.66        500.000        3306.52     
  1461.15        500.000        3309.02     
  1458.65        500.000        3311.27     
  1456.14        500.000        3313.69     
  1453.63        500.000        3316.06     
  1451.13        500.000        3318.60     
  1448.62        500.000        3320.98     
  1446.12        500.000        3323.51     
  1443.61        500.000        3325.83     
  1441.10        500.000        3328.04     
  1438.60        500.000        3330.71     
  1436.09        500.000        3333.33     
  1433.58        500.000        3336.25     
  1431.08        500.000        3338.57     
  1428.57        500.000        3341.07     
  1426.07        500.000        3343.59     
  1423.56        500.000        3346.35     
  1421.05        500.000        3348.72     
  1418.55        500.000        3351.87     
  1416.04        500.000        3354.04     
  1413.53        500.000        3356.85     
  1411.03        500.000        3359.45     
  1408.52        500.000        3362.21     
  1406.02        500.000        3227.13     
  1403.51        500.000        3167.00     
  1401.00        500.000        3170.39     
  1398.50        500.000        3173.93     
  1395.99        500.000        3177.57     
  1393.48        500.000        3181.07     
  1390.98        500.000        3184.64     
  1388.47        500.000        3188.31     
  1385.96        500.000        3191.86     
  1383.46        500.000        3195.60     
  1380.95        500.000        3199.15     
  1378.45        500.000        3203.02     
  1375.94        500.000        3206.59     
  1373.43        500.000        3210.21     
  1370.93        500.000        3213.96     
  1368.42        500.000        3217.75     
  1365.91        500.000        3221.33     
  1363.41        500.000        3225.24     
  1360.90        500.000        3258.36     
  1358.40        500.000        3265.63     
  1355.89        500.000        3269.53     
  1353.38        500.000        3273.15     
  1350.88        500.000        3277.42     
  1348.37        500.000        3280.53     
  1345.86        500.000        3284.95     
  1343.36        500.000        3288.85     
  1340.85        500.000        3290.19     
  1338.35        500.000        3295.47     
  1335.84        500.000        3298.78     
  1333.33        500.000        3301.89     
  1330.83        500.000        3305.33     
  1328.32        500.000        3309.62     
  1325.81        500.000        3323.06     
  1323.31        500.000        3352.67     
  1320.80        500.000        3355.98     
  1318.30        500.000        3357.41     
  1315.79        500.000        3359.11     
  1313.28        500.000        3361.94     
  1310.78        500.000        3364.17     
  1308.27        500.000        3366.15     
  1305.76        500.000        3368.30     
  1303.26        500.000        3370.23     
  1300.75        500.000        3371.94     
  1298.25        500.000        3373.73     
  1295.74        500.000        3375.53     
  1293.23        500.000        3377.13     
  1290.73        500.000        3378.43     
  1288.22        500.000        3380.17     
  1285.71        500.000        3381.24     
  1283.21        500.000        3382.96     
  1280.70        500.000        3383.69     
  1278.20        500.000        3384.77     
  1275.69        500.000        3385.93     
  1273.18        500.000        3386.45     
  1270.68        500.000        3387.40     
  1268.17        500.000        3388.04     
  1265.66        500.000        3388.72     
  1263.16        500.000        2899.73     
  1260.65        500.000        2870.52     
  1258.15        500.000        2872.87     
  1255.64        500.000        2874.87     
  1253.13        500.000        2876.74     
  1250.63        500.000        2877.49     
  1248.12        500.000        2879.17     
  1245.61        500.000        2879.89     
  1243.11        500.000        2880.55     
  1240.60        500.000        2880.98     
  1238.10        500.000        2881.13     
  1235.59        500.000        2881.06     
  1233.08        500.000        2880.73     
  1230.58        500.000        2880.51     
  1228.07        500.000        2881.02     
  1225.56        500.000        2881.01     
  1223.06        500.000        2880.98     
  1220.55        500.000        2879.71     
  1218.05        500.000        2697.53     
  1215.54        500.000        2690.52     
  1213.03        500.000        2682.86     
  1210.53        500.000        2690.68     
  1208.02        500.000        2678.48     
  1205.51        500.000        2905.67     
  1203.01        500.000        2991.90     
  1200.50        500.000        2668.30     
  1197.99        500.000        2712.48     
  1195.49        500.000        2662.79     
  1192.98        500.000        2656.38     
  1190.48        500.000        2632.93     
  1187.97        500.000        2627.91     
  1185.46        500.000        2628.02     
  1182.96        500.000        2628.14     
  1180.45        500.000        2628.25     
  1177.94        500.000        2628.36     
  1175.44        500.000        2628.63     
  1172.93        500.000        2628.74     
  1170.43        500.000        2628.85     
  1167.92        500.000        2628.96     
  1165.41        500.000        2629.07     
  1162.91        500.000        2629.18     
  1160.40        500.000        2629.29     
  1157.89        500.000        2629.40     
  1155.39        500.000        2629.50     
  1152.88        500.000        2629.61     
  1150.38        500.000        2629.72     
  1147.87        500.000        2629.44     
  1145.36        500.000        2629.94     
  1142.86        500.000        2629.65     
  1140.35        500.000        2629.22     
  1137.84        500.000        2629.31     
  1135.34        500.000        2630.38     
  1132.83        500.000        2630.49     
  1130.33        500.000        2630.60     
  1127.82        500.000        2630.71     
  1125.31        500.000        2630.82     
  1122.81        500.000        2630.92     
  1120.30        500.000        2631.03     
  1117.79        500.000        2631.14     
  1115.29        500.000        2631.25     
  1112.78        500.000        2630.14     
  1110.28        500.000        2630.21     
  1107.77        500.000        2630.28     
  1105.26        500.000        2630.35     
  1102.76        500.000        2630.41     
  1100.25        500.000        2630.47     
  1097.74        500.000        2630.54     
  1095.24        500.000        2630.72     
  1092.73        500.000        2632.20     
  1090.23        500.000        2630.76     
  1087.72        500.000        2632.02     
  1085.21        500.000        2630.84     
  1082.71        500.000        2630.86     
  1080.20        500.000        2630.72     
  1077.69        500.000        2630.64     
  1075.19        500.000        2630.52     
  1072.68        500.000        2630.50     
  1070.18        500.000        2630.49     
  1067.67        500.000        2630.49     
  1065.16        500.000        2630.51     
  1062.66        500.000        2630.53     
  1060.15        500.000        2630.56     
  1057.64        500.000        2630.62     
  1055.14        500.000        2630.65     
  1052.63        500.000        2630.70     
  1050.13        500.000        2633.36     
  1047.62        500.000        2633.47     
  1045.11        500.000        2633.58     
  1042.61        500.000        2633.68     
  1040.10        500.000        2633.79     
  1037.59        500.000        2633.90     
  1035.09        500.000        2634.00     
  1032.58        500.000        2631.12     
  1030.08        500.000        2631.18     
  1027.57        500.000        2631.25     
  1025.06        500.000        2634.43     
  1022.56        500.000        2634.54     
  1020.05        500.000        2634.64     
  1017.54        500.000        2634.75     
  1015.04        500.000        2634.85     
  1012.53        500.000        2634.96     
  1010.03        500.000        2635.07     
  1007.52        500.000        2635.16     
  1005.01        500.000        2635.27     
  1002.51        500.000        2632.01     
  1000.00        500.000        2632.11     
