|6.6.6
Archiving\03_Data\eq/QFM_m3.25/GRV/GRV_3.tab                              
           1
T(K)    
  0.000000000000000E+000
  0.000000000000000E+000
           0
           9
T(K)           P(bar)         melt(TH)       pxmn           Sp(TH)         O(HP)          Opx(TH)        Cpx(TH)        Cpx(TH)       
  2000.00        2500.00        99.3195       0.680512                 NaN            NaN            NaN            NaN            NaN
  1996.79        2500.00        99.3194       0.680586                 NaN            NaN            NaN            NaN            NaN
  1993.59        2500.00        99.3193       0.680660                 NaN            NaN            NaN            NaN            NaN
  1990.38        2500.00        99.3193       0.680734                 NaN            NaN            NaN            NaN            NaN
  1987.18        2500.00        99.3192       0.680807                 NaN            NaN            NaN            NaN            NaN
  1983.97        2500.00        99.3191       0.680881                 NaN            NaN            NaN            NaN            NaN
  1980.77        2500.00        99.3190       0.680955                 NaN            NaN            NaN            NaN            NaN
  1977.56        2500.00        99.3190       0.681029                 NaN            NaN            NaN            NaN            NaN
  1974.36        2500.00        99.3189       0.681103                 NaN            NaN            NaN            NaN            NaN
  1971.15        2500.00        99.3188       0.681177                 NaN            NaN            NaN            NaN            NaN
  1967.95        2500.00        99.3187       0.681252                 NaN            NaN            NaN            NaN            NaN
  1964.74        2500.00        99.3187       0.681326                 NaN            NaN            NaN            NaN            NaN
  1961.54        2500.00        99.3186       0.681400                 NaN            NaN            NaN            NaN            NaN
  1958.33        2500.00        99.3185       0.681475                 NaN            NaN            NaN            NaN            NaN
  1955.13        2500.00        99.3185       0.681549                 NaN            NaN            NaN            NaN            NaN
  1951.92        2500.00        99.3184       0.681623                 NaN            NaN            NaN            NaN            NaN
  1948.72        2500.00        99.3183       0.681698                 NaN            NaN            NaN            NaN            NaN
  1945.51        2500.00        99.3182       0.681773                 NaN            NaN            NaN            NaN            NaN
  1942.31        2500.00        99.3182       0.681847                 NaN            NaN            NaN            NaN            NaN
  1939.10        2500.00        99.3181       0.681922                 NaN            NaN            NaN            NaN            NaN
  1935.90        2500.00        99.3180       0.681997                 NaN            NaN            NaN            NaN            NaN
  1932.69        2500.00        99.3179       0.682072                 NaN            NaN            NaN            NaN            NaN
  1929.49        2500.00        99.3179       0.682146                 NaN            NaN            NaN            NaN            NaN
  1926.28        2500.00        99.3178       0.682221                 NaN            NaN            NaN            NaN            NaN
  1923.08        2500.00        99.3177       0.682296                 NaN            NaN            NaN            NaN            NaN
  1919.87        2500.00        99.3176       0.682371                 NaN            NaN            NaN            NaN            NaN
  1916.67        2500.00        99.3176       0.682447                 NaN            NaN            NaN            NaN            NaN
  1913.46        2500.00        99.3175       0.682522                 NaN            NaN            NaN            NaN            NaN
  1910.26        2500.00        99.3174       0.682597                 NaN            NaN            NaN            NaN            NaN
  1907.05        2500.00        99.3173       0.682672                 NaN            NaN            NaN            NaN            NaN
  1903.85        2500.00        99.3173       0.682748                 NaN            NaN            NaN            NaN            NaN
  1900.64        2500.00        99.3172       0.682823                 NaN            NaN            NaN            NaN            NaN
  1897.44        2500.00        99.3171       0.682899                 NaN            NaN            NaN            NaN            NaN
  1894.23        2500.00        99.3170       0.682974                 NaN            NaN            NaN            NaN            NaN
  1891.03        2500.00        99.3170       0.683050                 NaN            NaN            NaN            NaN            NaN
  1887.82        2500.00        99.3169       0.683125                 NaN            NaN            NaN            NaN            NaN
  1884.62        2500.00        99.3168       0.683201                 NaN            NaN            NaN            NaN            NaN
  1881.41        2500.00        99.3167       0.683277                 NaN            NaN            NaN            NaN            NaN
  1878.21        2500.00        99.3166       0.683353                 NaN            NaN            NaN            NaN            NaN
  1875.00        2500.00        99.3166       0.683428                 NaN            NaN            NaN            NaN            NaN
  1871.79        2500.00        99.3165       0.683504                 NaN            NaN            NaN            NaN            NaN
  1868.59        2500.00        99.3164       0.683580                 NaN            NaN            NaN            NaN            NaN
  1865.38        2500.00        99.3163       0.683656                 NaN            NaN            NaN            NaN            NaN
  1862.18        2500.00        99.3163       0.683732                 NaN            NaN            NaN            NaN            NaN
  1858.97        2500.00        99.3162       0.683809                 NaN            NaN            NaN            NaN            NaN
  1855.77        2500.00        99.3161       0.683885                 NaN            NaN            NaN            NaN            NaN
  1852.56        2500.00        99.3160       0.683961                 NaN            NaN            NaN            NaN            NaN
  1849.36        2500.00        99.3160       0.684037                 NaN            NaN            NaN            NaN            NaN
  1846.15        2500.00        99.3159       0.684114                 NaN            NaN            NaN            NaN            NaN
  1842.95        2500.00        99.3158       0.684190                 NaN            NaN            NaN            NaN            NaN
  1839.74        2500.00        99.3157       0.684267                 NaN            NaN            NaN            NaN            NaN
  1836.54        2500.00        99.3157       0.684343                 NaN            NaN            NaN            NaN            NaN
  1833.33        2500.00        99.3156       0.684420                 NaN            NaN            NaN            NaN            NaN
  1830.13        2500.00        99.3155       0.684496                 NaN            NaN            NaN            NaN            NaN
  1826.92        2500.00        99.3154       0.684573                 NaN            NaN            NaN            NaN            NaN
  1823.72        2500.00        99.3154       0.684650                 NaN            NaN            NaN            NaN            NaN
  1820.51        2500.00        99.3153       0.684727                 NaN            NaN            NaN            NaN            NaN
  1817.31        2500.00        99.3075       0.684814       0.772949E-002            NaN            NaN            NaN            NaN
  1814.10        2500.00        99.2938       0.684910       0.212536E-001            NaN            NaN            NaN            NaN
  1810.90        2500.00        99.2806       0.685005       0.344446E-001            NaN            NaN            NaN            NaN
  1807.69        2500.00        99.2673       0.685100       0.476395E-001            NaN            NaN            NaN            NaN
  1804.49        2500.00        99.2543       0.685195       0.605191E-001            NaN            NaN            NaN            NaN
  1801.28        2500.00        99.2413       0.685290       0.734025E-001            NaN            NaN            NaN            NaN
  1798.08        2500.00        99.2283       0.685385       0.862897E-001            NaN            NaN            NaN            NaN
  1794.87        2500.00        99.2153       0.685480       0.991805E-001            NaN            NaN            NaN            NaN
  1791.67        2500.00        99.2028       0.685574       0.111599                 NaN            NaN            NaN            NaN
  1788.46        2500.00        99.1903       0.685668       0.124021                 NaN            NaN            NaN            NaN
  1785.26        2500.00        99.1778       0.685763       0.136446                 NaN            NaN            NaN            NaN
  1782.05        2500.00        99.1653       0.685857       0.148876                 NaN            NaN            NaN            NaN
  1778.85        2500.00        99.1531       0.685951       0.160984                 NaN            NaN            NaN            NaN
  1775.64        2500.00        99.1409       0.686045       0.173096                 NaN            NaN            NaN            NaN
  1772.44        2500.00        98.9807       0.686191       0.185125       0.147948                 NaN            NaN            NaN
  1769.23        2500.00        98.2114       0.686550       0.197068       0.905028                 NaN            NaN            NaN
  1766.03        2500.00        97.4364       0.686910       0.208613        1.66805                 NaN            NaN            NaN
  1762.82        2500.00        96.6607       0.687267       0.220169        2.43184                 NaN            NaN            NaN
  1759.62        2500.00        95.8842       0.687623       0.231737        3.19640                 NaN            NaN            NaN
  1756.41        2500.00        95.1070       0.687977       0.243315        3.96170                 NaN            NaN            NaN
  1753.21        2500.00        94.3290       0.688328       0.254905        4.72775                 NaN            NaN            NaN
  1750.00        2500.00        93.5503       0.688678       0.266507        5.49454                 NaN            NaN            NaN
  1746.79        2500.00        92.7708       0.689026       0.278119        6.26207                 NaN            NaN            NaN
  1743.59        2500.00        91.9906       0.689372       0.289742        7.03032                 NaN            NaN            NaN
  1740.38        2500.00        91.2103       0.689715       0.300435        7.79957                 NaN            NaN            NaN
  1737.18        2500.00        90.4293       0.690056       0.311137        8.56953                 NaN            NaN            NaN
  1733.97        2500.00        89.6476       0.690394       0.321849        9.34020                 NaN            NaN            NaN
  1730.77        2500.00        88.8651       0.690731       0.332570        10.1116                 NaN            NaN            NaN
  1727.56        2500.00        88.0820       0.691065       0.343301        10.8836                 NaN            NaN            NaN
  1724.36        2500.00        87.2982       0.691397       0.354041        11.6563                 NaN            NaN            NaN
  1721.15        2500.00        86.5138       0.691727       0.364790        12.4297                 NaN            NaN            NaN
  1717.95        2500.00        85.7286       0.692054       0.375548        13.2038                 NaN            NaN            NaN
  1714.74        2500.00        84.9637       0.692371       0.385416        13.9585                 NaN            NaN            NaN
  1711.54        2500.00        84.1981       0.692685       0.395290        14.7139                 NaN            NaN            NaN
  1708.33        2500.00        83.4320       0.692998       0.405173        15.4699                 NaN            NaN            NaN
  1705.13        2500.00        82.6652       0.693307       0.415063        16.2264                 NaN            NaN            NaN
  1701.92        2500.00        81.8978       0.693615       0.424960        16.9836                 NaN            NaN            NaN
  1698.72        2500.00        81.1299       0.693919       0.434865        17.7413                 NaN            NaN            NaN
  1695.51        2500.00        80.3614       0.694222       0.444776        18.4996                 NaN            NaN            NaN
  1692.31        2500.00        79.5923       0.694521       0.454695        19.2585                 NaN            NaN            NaN
  1689.10        2500.00        78.8537       0.694807       0.464002        19.9875                 NaN            NaN            NaN
  1685.90        2500.00        78.1145       0.695091       0.473316        20.7171                 NaN            NaN            NaN
  1682.69        2500.00        77.3749       0.695372       0.482635        21.4471                 NaN            NaN            NaN
  1679.49        2500.00        76.6348       0.695650       0.491960        22.1776                 NaN            NaN            NaN
  1676.28        2500.00        75.9142       0.695920       0.500945        22.8889                 NaN            NaN            NaN
  1673.08        2500.00        75.1932       0.696186       0.509936        23.6007                 NaN            NaN            NaN
  1669.87        2500.00        73.5502       0.697336       0.518019        24.0321        1.20237                 NaN            NaN
  1666.67        2500.00        71.4460       0.698945       0.524929        24.2967        3.03351                 NaN            NaN
  1663.46        2500.00        69.7098       0.700296       0.528998        24.4990        4.56192                 NaN            NaN
  1660.26        2500.00        67.9671       0.701650       0.533081        24.7020        6.09616                 NaN            NaN
  1657.05        2500.00        66.2178       0.703008       0.537178        24.9057        7.63628                 NaN            NaN
  1653.85        2500.00        64.4618       0.704368       0.541290        25.1102        9.18230                 NaN            NaN
  1650.64        2500.00        62.6993       0.705732       0.545416        25.3154        10.7342                 NaN            NaN
  1647.44        2500.00        60.9300       0.707099       0.549557        25.5213        12.2921                 NaN            NaN
  1644.23        2500.00        59.1540       0.708470       0.553712        25.7279        13.8559                 NaN            NaN
  1641.03        2500.00        57.3714       0.709843       0.557882        25.9352        15.4257                 NaN            NaN
  1637.82        2500.00        56.0400       0.710907       0.557968        26.0657        16.6254                 NaN            NaN
  1634.62        2500.00        54.7048       0.711972       0.558053        26.1965        17.8287                 NaN            NaN
  1631.41        2500.00        53.3657       0.713039       0.558138        26.3277        19.0355                 NaN            NaN
  1628.21        2500.00        52.0227       0.714107       0.558221        26.4592        20.2458                 NaN            NaN
  1625.00        2500.00        50.6758       0.715178       0.558304        26.5910        21.4596                 NaN            NaN
  1621.79        2500.00        49.3251       0.716250       0.558386        26.7232        22.6771                 NaN            NaN
  1618.59        2500.00        47.9704       0.717324       0.558467        26.8557        23.8981                 NaN            NaN
  1615.38        2500.00        46.6118       0.718399       0.558547        26.9886        25.1226                 NaN            NaN
  1612.18        2500.00        45.5012       0.719308       0.554582        27.0809        26.1440                 NaN            NaN
  1608.97        2500.00        44.3878       0.720218       0.550605        27.1734        27.1680                 NaN            NaN
  1605.77        2500.00        43.2718       0.721130       0.546618        27.2661        28.1944                 NaN            NaN
  1602.56        2500.00        42.1530       0.722043       0.542620        27.3590        29.2233                 NaN            NaN
  1599.36        2500.00        41.0316       0.722957       0.538611        27.4521        30.2548                 NaN            NaN
  1596.15        2500.00        39.9074       0.723872       0.534591        27.5454        31.2888                 NaN            NaN
  1592.95        2500.00        38.7806       0.724788       0.530560        27.6388        32.3253                 NaN            NaN
  1589.74        2500.00        37.6510       0.725706       0.526518        27.7325        33.3643                 NaN            NaN
  1586.54        2500.00        36.6171       0.726563       0.518610        27.8139        34.3238                 NaN            NaN
  1583.33        2500.00        35.5809       0.727421       0.510682        27.8955        35.2855                 NaN            NaN
  1580.13        2500.00        34.5424       0.728281       0.502734        27.9773        36.2493                 NaN            NaN
  1576.92        2500.00        33.5016       0.729141       0.494767        28.0592        37.2154                 NaN            NaN
  1573.72        2500.00        32.4776       0.729993       0.484279        28.1410        38.1671                 NaN            NaN
  1570.51        2500.00        31.4309       0.730864       0.475414        28.2217        38.8996       0.241563                 NaN
  1567.31        2500.00        30.1387       0.731939       0.479173        28.3029        38.2168        2.13053                 NaN
  1564.10        2500.00        28.8429       0.733016       0.482944        28.3843        37.5319        4.02499                 NaN
  1560.90        2500.00        27.5213       0.734144       0.483727        28.4818        37.0333        5.74573                 NaN
  1557.69        2500.00        26.1958       0.735274       0.484514        28.5795        36.5332        7.47172                 NaN
  1554.49        2500.00        24.8664       0.736406       0.485302        28.6775        36.0314        9.20298                 NaN
  1551.28        2500.00        23.5331       0.737540       0.486094        28.7757        35.5280        10.9395                 NaN
  1548.08        2500.00        22.2217       0.738684       0.482295        28.8850        35.3206        12.3518                 NaN
  1544.87        2500.00        20.9298       0.739824       0.473623        29.0016        35.4109        13.2125       0.231778     
  1541.67        2500.00        20.9286       0.739845       0.473641        29.0020        35.4114        13.2127       0.231781     
  1538.46        2500.00        18.3583       0.742138       0.431825        29.2783        37.0188        11.1138        3.05682     
