|6.6.6
Archiving\03_Data\Deq/QFM_m0.5/WD94/WD94_3.tab                            
           1
T(K)    
  0.000000000000000E+000
  0.000000000000000E+000
           0
           9
T(K)           P(bar)         melt(TH)       Sp(TH)         O(HP)          Opx(TH)        Cpx(TH)        Cpx(TH)        an            
  2000.00        2500.00        100.000                 NaN            NaN            NaN            NaN            NaN            NaN
  1996.79        2500.00        100.000                 NaN            NaN            NaN            NaN            NaN            NaN
  1993.59        2500.00        100.000                 NaN            NaN            NaN            NaN            NaN            NaN
  1990.38        2500.00        100.000                 NaN            NaN            NaN            NaN            NaN            NaN
  1987.18        2500.00        100.000                 NaN            NaN            NaN            NaN            NaN            NaN
  1983.97        2500.00        100.000                 NaN            NaN            NaN            NaN            NaN            NaN
  1980.77        2500.00        100.000                 NaN            NaN            NaN            NaN            NaN            NaN
  1977.56        2500.00        100.000                 NaN            NaN            NaN            NaN            NaN            NaN
  1974.36        2500.00        100.000                 NaN            NaN            NaN            NaN            NaN            NaN
  1971.15        2500.00        100.000                 NaN            NaN            NaN            NaN            NaN            NaN
  1967.95        2500.00        100.000                 NaN            NaN            NaN            NaN            NaN            NaN
  1964.74        2500.00        100.000                 NaN            NaN            NaN            NaN            NaN            NaN
  1961.54        2500.00        100.000                 NaN            NaN            NaN            NaN            NaN            NaN
  1958.33        2500.00        100.000                 NaN            NaN            NaN            NaN            NaN            NaN
  1955.13        2500.00        100.000                 NaN            NaN            NaN            NaN            NaN            NaN
  1951.92        2500.00        100.000                 NaN            NaN            NaN            NaN            NaN            NaN
  1948.72        2500.00        100.000                 NaN            NaN            NaN            NaN            NaN            NaN
  1945.51        2500.00        100.000                 NaN            NaN            NaN            NaN            NaN            NaN
  1942.31        2500.00        100.000                 NaN            NaN            NaN            NaN            NaN            NaN
  1939.10        2500.00        100.000                 NaN            NaN            NaN            NaN            NaN            NaN
  1935.90        2500.00        100.000                 NaN            NaN            NaN            NaN            NaN            NaN
  1932.69        2500.00        100.000                 NaN            NaN            NaN            NaN            NaN            NaN
  1929.49        2500.00        100.000                 NaN            NaN            NaN            NaN            NaN            NaN
  1926.28        2500.00        100.000                 NaN            NaN            NaN            NaN            NaN            NaN
  1923.08        2500.00        100.000                 NaN            NaN            NaN            NaN            NaN            NaN
  1919.87        2500.00        100.000                 NaN            NaN            NaN            NaN            NaN            NaN
  1916.67        2500.00        100.000                 NaN            NaN            NaN            NaN            NaN            NaN
  1913.46        2500.00        100.000                 NaN            NaN            NaN            NaN            NaN            NaN
  1910.26        2500.00        99.4576                 NaN  0.542431                 NaN            NaN            NaN            NaN
  1907.05        2500.00        98.7017                 NaN   1.29830                 NaN            NaN            NaN            NaN
  1903.85        2500.00        97.9386       0.728379E-003   2.06068                 NaN            NaN            NaN            NaN
  1900.64        2500.00        97.2050       0.921820E-002   2.78579                 NaN            NaN            NaN            NaN
  1897.44        2500.00        96.4705       0.177183E-001   3.51176                 NaN            NaN            NaN            NaN
  1894.23        2500.00        95.7659       0.293898E-001   4.20468                 NaN            NaN            NaN            NaN
  1891.03        2500.00        95.0605       0.410752E-001   4.89839                 NaN            NaN            NaN            NaN
  1887.82        2500.00        94.3543       0.527743E-001   5.59290                 NaN            NaN            NaN            NaN
  1884.62        2500.00        93.6473       0.644872E-001   6.28819                 NaN            NaN            NaN            NaN
  1881.41        2500.00        92.9395       0.762138E-001   6.98427                 NaN            NaN            NaN            NaN
  1878.21        2500.00        92.2309       0.879541E-001   7.68114                 NaN            NaN            NaN            NaN
  1875.00        2500.00        91.5215       0.997079E-001   8.37878                 NaN            NaN            NaN            NaN
  1871.79        2500.00        90.8113       0.111475        9.07720                 NaN            NaN            NaN            NaN
  1868.59        2500.00        90.1499       0.122243        9.72783                 NaN            NaN            NaN            NaN
  1865.38        2500.00        89.4878       0.133022        10.3792                 NaN            NaN            NaN            NaN
  1862.18        2500.00        88.8250       0.143813        11.0312                 NaN            NaN            NaN            NaN
  1858.97        2500.00        88.1615       0.154616        11.6839                 NaN            NaN            NaN            NaN
  1855.77        2500.00        87.4973       0.165431        12.3372                 NaN            NaN            NaN            NaN
  1852.56        2500.00        86.8325       0.176257        12.9913                 NaN            NaN            NaN            NaN
  1849.36        2500.00        86.1669       0.187095        13.6460                 NaN            NaN            NaN            NaN
  1846.15        2500.00        85.5007       0.197944        14.3014                 NaN            NaN            NaN            NaN
  1842.95        2500.00        84.8680       0.207908        14.9241                 NaN            NaN            NaN            NaN
  1839.74        2500.00        84.2347       0.217882        15.5474                 NaN            NaN            NaN            NaN
  1836.54        2500.00        83.6008       0.227867        16.1713                 NaN            NaN            NaN            NaN
  1833.33        2500.00        82.9663       0.237862        16.7958                 NaN            NaN            NaN            NaN
  1830.13        2500.00        82.3312       0.247866        17.4209                 NaN            NaN            NaN            NaN
  1826.92        2500.00        81.6955       0.257881        18.0467                 NaN            NaN            NaN            NaN
  1823.72        2500.00        81.0591       0.267906        18.6730                 NaN            NaN            NaN            NaN
  1820.51        2500.00        80.4222       0.277941        19.2999                 NaN            NaN            NaN            NaN
  1817.31        2500.00        79.8111       0.287159        19.9017                 NaN            NaN            NaN            NaN
  1814.10        2500.00        79.1996       0.296386        20.5040                 NaN            NaN            NaN            NaN
  1810.90        2500.00        78.5874       0.305621        21.1069                 NaN            NaN            NaN            NaN
  1807.69        2500.00        77.9748       0.314866        21.7104                 NaN            NaN            NaN            NaN
  1804.49        2500.00        77.3616       0.324118        22.3143                 NaN            NaN            NaN            NaN
  1801.28        2500.00        76.7478       0.333380        22.9188                 NaN            NaN            NaN            NaN
  1798.08        2500.00        76.1335       0.342650        23.5238                 NaN            NaN            NaN            NaN
  1794.87        2500.00        75.5187       0.351928        24.1294                 NaN            NaN            NaN            NaN
  1791.67        2500.00        74.9182       0.360437        24.7213                 NaN            NaN            NaN            NaN
  1788.46        2500.00        74.3173       0.368953        25.3137                 NaN            NaN            NaN            NaN
  1785.26        2500.00        73.7159       0.377476        25.9067                 NaN            NaN            NaN            NaN
  1782.05        2500.00        73.1139       0.386007        26.5001                 NaN            NaN            NaN            NaN
  1778.85        2500.00        72.5115       0.394546        27.0940                 NaN            NaN            NaN            NaN
  1775.64        2500.00        71.9085       0.403091        27.6884                 NaN            NaN            NaN            NaN
  1772.44        2500.00        71.3051       0.411644        28.2832                 NaN            NaN            NaN            NaN
  1769.23        2500.00        70.7012       0.420204        28.8786                 NaN            NaN            NaN            NaN
  1766.03        2500.00        70.1165       0.428589        29.4549                 NaN            NaN            NaN            NaN
  1762.82        2500.00        69.5313       0.436979        30.0317                 NaN            NaN            NaN            NaN
  1759.62        2500.00        68.9457       0.445377        30.6090                 NaN            NaN            NaN            NaN
  1756.41        2500.00        68.3596       0.453781        31.1866                 NaN            NaN            NaN            NaN
  1753.21        2500.00        67.7731       0.462191        31.7647                 NaN            NaN            NaN            NaN
  1750.00        2500.00        67.1862       0.470609        32.3432                 NaN            NaN            NaN            NaN
  1746.79        2500.00        66.5988       0.479032        32.9221                 NaN            NaN            NaN            NaN
  1743.59        2500.00        66.0110       0.487462        33.5015                 NaN            NaN            NaN            NaN
  1740.38        2500.00        65.4450       0.494638        34.0603                 NaN            NaN            NaN            NaN
  1737.18        2500.00        64.8786       0.501820        34.6196                 NaN            NaN            NaN            NaN
  1733.97        2500.00        64.3119       0.509006        35.1791                 NaN            NaN            NaN            NaN
  1730.77        2500.00        63.7447       0.516197        35.7391                 NaN            NaN            NaN            NaN
  1727.56        2500.00        63.1772       0.523393        36.2994                 NaN            NaN            NaN            NaN
  1724.36        2500.00        62.6093       0.530594        36.8601                 NaN            NaN            NaN            NaN
  1721.15        2500.00        62.0411       0.537800        37.4211                 NaN            NaN            NaN            NaN
  1717.95        2500.00        61.4725       0.545010        37.9825                 NaN            NaN            NaN            NaN
  1714.74        2500.00        60.9311       0.551908        38.5170                 NaN            NaN            NaN            NaN
  1711.54        2500.00        60.3894       0.558811        39.0518                 NaN            NaN            NaN            NaN
  1708.33        2500.00        59.8474       0.565717        39.5869                 NaN            NaN            NaN            NaN
  1705.13        2500.00        59.3051       0.572627        40.1223                 NaN            NaN            NaN            NaN
  1701.92        2500.00        58.7625       0.579541        40.6579                 NaN            NaN            NaN            NaN
  1698.72        2500.00        58.2196       0.586459        41.1939                 NaN            NaN            NaN            NaN
  1695.51        2500.00        57.6765       0.593381        41.7301                 NaN            NaN            NaN            NaN
  1692.31        2500.00        57.1330       0.600307        42.2667                 NaN            NaN            NaN            NaN
  1689.10        2500.00        56.5593       0.608389        42.8324                 NaN            NaN            NaN            NaN
  1685.90        2500.00        55.9852       0.616476        43.3983                 NaN            NaN            NaN            NaN
  1682.69        2500.00        55.4109       0.624566        43.9645                 NaN            NaN            NaN            NaN
  1679.49        2500.00        54.8364       0.632661        44.5310                 NaN            NaN            NaN            NaN
  1676.28        2500.00        54.2616       0.640760        45.0977                 NaN            NaN            NaN            NaN
  1673.08        2500.00        53.6865       0.648862        45.6646                 NaN            NaN            NaN            NaN
  1669.87        2500.00        53.1113       0.656969        46.2318                 NaN            NaN            NaN            NaN
  1666.67        2500.00        52.5358       0.665079        46.7992                 NaN            NaN            NaN            NaN
  1663.46        2500.00        52.6141       0.661731        46.7241                 NaN            NaN            NaN            NaN
  1660.26        2500.00        52.6925       0.658382        46.6491                 NaN            NaN            NaN            NaN
  1657.05        2500.00        51.3980       0.671638        47.6835       0.246792                 NaN            NaN            NaN
  1653.85        2500.00        49.7891       0.669600        48.0199        1.52139                 NaN            NaN            NaN
  1650.64        2500.00        48.5638       0.666928        48.2396        2.52974                 NaN            NaN            NaN
  1647.44        2500.00        47.3353       0.664248        48.4597        3.54076                 NaN            NaN            NaN
  1644.23        2500.00        46.1037       0.661559        48.6803        4.55443                 NaN            NaN            NaN
  1641.03        2500.00        44.8689       0.658861        48.9014        5.57077                 NaN            NaN            NaN
  1637.82        2500.00        43.8625       0.655577        49.0838        6.39811                 NaN            NaN            NaN
  1634.62        2500.00        42.8540       0.652286        49.2664        7.22725                 NaN            NaN            NaN
  1631.41        2500.00        41.8434       0.648986        49.4494        8.05818                 NaN            NaN            NaN
  1628.21        2500.00        40.8307       0.645677        49.6327        8.89090                 NaN            NaN            NaN
  1625.00        2500.00        39.8160       0.642360        49.8163        9.72542                 NaN            NaN            NaN
  1621.79        2500.00        38.7991       0.639035        50.0001        10.5617                 NaN            NaN            NaN
  1618.59        2500.00        37.7801       0.635702        50.1843        11.3998                 NaN            NaN            NaN
  1615.38        2500.00        36.7591       0.632360        50.3688        12.2398                 NaN            NaN            NaN
  1612.18        2500.00        35.9961       0.628224        50.4974        12.8783                 NaN            NaN            NaN
  1608.97        2500.00        35.2319       0.624079        50.6261        13.5179                 NaN            NaN            NaN
  1605.77        2500.00        34.4666       0.619927        50.7550        14.1585                 NaN            NaN            NaN
  1602.56        2500.00        33.7000       0.615768        50.8840        14.8002                 NaN            NaN            NaN
  1599.36        2500.00        32.9323       0.611601        51.0132        15.4429                 NaN            NaN            NaN
  1596.15        2500.00        32.1634       0.607426        51.1425        16.0867                 NaN            NaN            NaN
  1592.95        2500.00        31.3933       0.603243        51.2720        16.7315                 NaN            NaN            NaN
  1589.74        2500.00        30.6221       0.599052        51.4015        17.3773                 NaN            NaN            NaN
  1586.54        2500.00        30.0028       0.593812        51.4992        17.9042                 NaN            NaN            NaN
  1583.33        2500.00        29.3827       0.588564        51.5970        18.4317                 NaN            NaN            NaN
  1580.13        2500.00        28.7619       0.583308        51.6949        18.9600                 NaN            NaN            NaN
  1576.92        2500.00        28.1402       0.578045        51.7928        19.4889                 NaN            NaN            NaN
  1573.72        2500.00        27.5178       0.572774        51.8908        20.0185                 NaN            NaN            NaN
  1570.51        2500.00        26.8947       0.567495        51.9889        20.5489                 NaN            NaN            NaN
  1567.31        2500.00        26.2707       0.562209        52.0871        21.0799                 NaN            NaN            NaN
  1564.10        2500.00        25.6460       0.556916        52.1854        21.6117                 NaN            NaN            NaN
  1560.90        2500.00        25.1186       0.550555        52.2608        22.0700                 NaN            NaN            NaN
  1557.69        2500.00        24.5907       0.544187        52.3362        22.5289                 NaN            NaN            NaN
  1554.49        2500.00        24.0622       0.537811        52.4117        22.9883                 NaN            NaN            NaN
  1551.28        2500.00        23.5331       0.531428        52.4873        23.4482                 NaN            NaN            NaN
  1548.08        2500.00        23.0035       0.525036        52.5629        23.9086                 NaN            NaN            NaN
  1544.87        2500.00        22.4733       0.518637        52.6385        24.3695                 NaN            NaN            NaN
  1541.67        2500.00        21.9425       0.512230        52.7142        24.8310                 NaN            NaN            NaN
  1538.46        2500.00        21.4113       0.505815        52.7900        25.2929                 NaN            NaN            NaN
