|6.6.6
Archiving\03_Data\Deq/QFM/T13/T13_3.tab                               
           1
T(K)    
  0.000000000000000E+000
  0.000000000000000E+000
           0
           9
T(K)           P(bar)         melt(TH)       O(HP)          Sp(TH)         Opx(TH)        Cpx(TH)        Cpx(TH)        an            
  2000.00        2500.00        99.7298       0.270241                 NaN            NaN            NaN            NaN            NaN
  1996.79        2500.00        99.7118       0.288179                 NaN            NaN            NaN            NaN            NaN
  1993.59        2500.00        99.6939       0.306122                 NaN            NaN            NaN            NaN            NaN
  1990.38        2500.00        99.6759       0.324068                 NaN            NaN            NaN            NaN            NaN
  1987.18        2500.00        99.6580       0.342019                 NaN            NaN            NaN            NaN            NaN
  1983.97        2500.00        99.6400       0.359974                 NaN            NaN            NaN            NaN            NaN
  1980.77        2500.00        99.6221       0.377933                 NaN            NaN            NaN            NaN            NaN
  1977.56        2500.00        99.6041       0.395897                 NaN            NaN            NaN            NaN            NaN
  1974.36        2500.00        99.5861       0.413864                 NaN            NaN            NaN            NaN            NaN
  1971.15        2500.00        99.5293       0.470698                 NaN            NaN            NaN            NaN            NaN
  1967.95        2500.00        99.4725       0.527547                 NaN            NaN            NaN            NaN            NaN
  1964.74        2500.00        99.4156       0.584413                 NaN            NaN            NaN            NaN            NaN
  1961.54        2500.00        99.3587       0.641294                 NaN            NaN            NaN            NaN            NaN
  1958.33        2500.00        99.3018       0.698192                 NaN            NaN            NaN            NaN            NaN
  1955.13        2500.00        99.2449       0.755106                 NaN            NaN            NaN            NaN            NaN
  1951.92        2500.00        99.1880       0.812036                 NaN            NaN            NaN            NaN            NaN
  1948.72        2500.00        99.1310       0.868982                 NaN            NaN            NaN            NaN            NaN
  1945.51        2500.00        98.9444        1.05556                 NaN            NaN            NaN            NaN            NaN
  1942.31        2500.00        98.7578        1.24222                 NaN            NaN            NaN            NaN            NaN
  1939.10        2500.00        98.5710        1.42897                 NaN            NaN            NaN            NaN            NaN
  1935.90        2500.00        98.3842        1.61580                 NaN            NaN            NaN            NaN            NaN
  1932.69        2500.00        98.0215        1.97845                 NaN            NaN            NaN            NaN            NaN
  1929.49        2500.00        97.6586        2.34136                 NaN            NaN            NaN            NaN            NaN
  1926.28        2500.00        97.1918        2.80818                 NaN            NaN            NaN            NaN            NaN
  1923.08        2500.00        96.6579        3.34000       0.209636E-002            NaN            NaN            NaN            NaN
  1919.87        2500.00        96.0070        3.97871       0.142655E-001            NaN            NaN            NaN            NaN
  1916.67        2500.00        95.3554        4.61812       0.264485E-001            NaN            NaN            NaN            NaN
  1913.46        2500.00        94.7031        5.25823       0.386453E-001            NaN            NaN            NaN            NaN
  1910.26        2500.00        94.0501        5.89905       0.508559E-001            NaN            NaN            NaN            NaN
  1907.05        2500.00        93.3964        6.54056       0.630801E-001            NaN            NaN            NaN            NaN
  1903.85        2500.00        92.7419        7.18277       0.753181E-001            NaN            NaN            NaN            NaN
  1900.64        2500.00        92.0868        7.82567       0.875696E-001            NaN            NaN            NaN            NaN
  1897.44        2500.00        91.4309        8.46926       0.998347E-001            NaN            NaN            NaN            NaN
  1894.23        2500.00        90.7662        9.12302       0.110824                 NaN            NaN            NaN            NaN
  1891.03        2500.00        90.1007        9.77750       0.121825                 NaN            NaN            NaN            NaN
  1887.82        2500.00        89.4345        10.4327       0.132839                 NaN            NaN            NaN            NaN
  1884.62        2500.00        88.7675        11.0886       0.143865                 NaN            NaN            NaN            NaN
  1881.41        2500.00        88.0999        11.7452       0.154904                 NaN            NaN            NaN            NaN
  1878.21        2500.00        87.4315        12.4025       0.165954                 NaN            NaN            NaN            NaN
  1875.00        2500.00        86.7624        13.0606       0.177017                 NaN            NaN            NaN            NaN
  1871.79        2500.00        86.0926        13.7193       0.188092                 NaN            NaN            NaN            NaN
  1868.59        2500.00        85.4576        14.3442       0.198179                 NaN            NaN            NaN            NaN
  1865.38        2500.00        84.8219        14.9698       0.208275                 NaN            NaN            NaN            NaN
  1862.18        2500.00        84.1856        15.5960       0.218383                 NaN            NaN            NaN            NaN
  1858.97        2500.00        83.5486        16.2229       0.228501                 NaN            NaN            NaN            NaN
  1855.77        2500.00        82.9110        16.8503       0.238630                 NaN            NaN            NaN            NaN
  1852.56        2500.00        82.2728        17.4785       0.248769                 NaN            NaN            NaN            NaN
  1849.36        2500.00        81.6339        18.1072       0.258919                 NaN            NaN            NaN            NaN
  1846.15        2500.00        80.9943        18.7366       0.269079                 NaN            NaN            NaN            NaN
  1842.95        2500.00        80.3895        19.3321       0.278334                 NaN            NaN            NaN            NaN
  1839.74        2500.00        79.7842        19.9282       0.287597                 NaN            NaN            NaN            NaN
  1836.54        2500.00        79.1782        20.5249       0.296870                 NaN            NaN            NaN            NaN
  1833.33        2500.00        78.5717        21.1222       0.306151                 NaN            NaN            NaN            NaN
  1830.13        2500.00        77.9646        21.7200       0.315442                 NaN            NaN            NaN            NaN
  1826.92        2500.00        77.3569        22.3183       0.324742                 NaN            NaN            NaN            NaN
  1823.72        2500.00        76.7487        22.9172       0.334050                 NaN            NaN            NaN            NaN
  1820.51        2500.00        76.1399        23.5167       0.343368                 NaN            NaN            NaN            NaN
  1817.31        2500.00        75.5558        24.0923       0.351903                 NaN            NaN            NaN            NaN
  1814.10        2500.00        74.9711        24.6685       0.360447                 NaN            NaN            NaN            NaN
  1810.90        2500.00        74.3859        25.2451       0.368999                 NaN            NaN            NaN            NaN
  1807.69        2500.00        73.8001        25.8223       0.377558                 NaN            NaN            NaN            NaN
  1804.49        2500.00        73.2139        26.4000       0.386125                 NaN            NaN            NaN            NaN
  1801.28        2500.00        72.6272        26.9781       0.394700                 NaN            NaN            NaN            NaN
  1798.08        2500.00        72.0399        27.5568       0.403282                 NaN            NaN            NaN            NaN
  1794.87        2500.00        71.4522        28.1359       0.411872                 NaN            NaN            NaN            NaN
  1791.67        2500.00        70.8847        28.6955       0.419825                 NaN            NaN            NaN            NaN
  1788.46        2500.00        70.3167        29.2555       0.427785                 NaN            NaN            NaN            NaN
  1785.26        2500.00        69.7483        29.8159       0.435751                 NaN            NaN            NaN            NaN
  1782.05        2500.00        69.1794        30.3768       0.443724                 NaN            NaN            NaN            NaN
  1778.85        2500.00        68.6101        30.9382       0.451704                 NaN            NaN            NaN            NaN
  1775.64        2500.00        68.0403        31.5000       0.459690                 NaN            NaN            NaN            NaN
  1772.44        2500.00        67.4701        32.0622       0.467683                 NaN            NaN            NaN            NaN
  1769.23        2500.00        66.8994        32.6249       0.475683                 NaN            NaN            NaN            NaN
  1766.03        2500.00        66.3503        33.1667       0.482978                 NaN            NaN            NaN            NaN
  1762.82        2500.00        65.8009        33.7088       0.490278                 NaN            NaN            NaN            NaN
  1759.62        2500.00        65.2510        34.2514       0.497585                 NaN            NaN            NaN            NaN
  1756.41        2500.00        64.7008        34.7943       0.504896                 NaN            NaN            NaN            NaN
  1753.21        2500.00        64.1501        35.3377       0.512214                 NaN            NaN            NaN            NaN
  1750.00        2500.00        63.5991        35.8814       0.519536                 NaN            NaN            NaN            NaN
  1746.79        2500.00        63.0476        36.4255       0.526864                 NaN            NaN            NaN            NaN
  1743.59        2500.00        62.4958        36.9700       0.534197                 NaN            NaN            NaN            NaN
  1740.38        2500.00        61.9654        37.4937       0.540949                 NaN            NaN            NaN            NaN
  1737.18        2500.00        61.4346        38.0177       0.547706                 NaN            NaN            NaN            NaN
  1733.97        2500.00        60.9035        38.5420       0.554467                 NaN            NaN            NaN            NaN
  1730.77        2500.00        60.3720        39.0667       0.561233                 NaN            NaN            NaN            NaN
  1727.56        2500.00        59.8402        39.5918       0.568003                 NaN            NaN            NaN            NaN
  1724.36        2500.00        59.3081        40.1171       0.574777                 NaN            NaN            NaN            NaN
  1721.15        2500.00        58.7756        40.6428       0.581556                 NaN            NaN            NaN            NaN
  1717.95        2500.00        58.2428        41.1688       0.588339                 NaN            NaN            NaN            NaN
  1714.74        2500.00        57.7382        41.6671       0.594642                 NaN            NaN            NaN            NaN
  1711.54        2500.00        57.2333        42.1657       0.600949                 NaN            NaN            NaN            NaN
  1708.33        2500.00        56.7282        42.6646       0.607260                 NaN            NaN            NaN            NaN
  1705.13        2500.00        56.2227        43.1637       0.613574                 NaN            NaN            NaN            NaN
  1701.92        2500.00        55.7170        43.6631       0.619891                 NaN            NaN            NaN            NaN
  1698.72        2500.00        55.2111        44.1627       0.626212                 NaN            NaN            NaN            NaN
  1695.51        2500.00        54.7048        44.6626       0.632536                 NaN            NaN            NaN            NaN
  1692.31        2500.00        54.1984        45.1628       0.638864                 NaN            NaN            NaN            NaN
  1689.10        2500.00        53.7258        45.6296       0.644605                 NaN            NaN            NaN            NaN
  1685.90        2500.00        53.2531        46.0966       0.650349                 NaN            NaN            NaN            NaN
  1682.69        2500.00        52.7801        46.5638       0.656096                 NaN            NaN            NaN            NaN
  1679.49        2500.00        52.3070        47.0312       0.661845                 NaN            NaN            NaN            NaN
  1676.28        2500.00        51.8336        47.4988       0.667596                 NaN            NaN            NaN            NaN
  1673.08        2500.00        51.3601        47.9666       0.673350                 NaN            NaN            NaN            NaN
  1669.87        2500.00        50.8863        48.4346       0.679107                 NaN            NaN            NaN            NaN
  1666.67        2500.00        50.4124        48.9027       0.684866                 NaN            NaN            NaN            NaN
  1663.46        2500.00        49.9665        49.3427       0.690818                 NaN            NaN            NaN            NaN
  1660.26        2500.00        49.5204        49.7829       0.696773                 NaN            NaN            NaN            NaN
  1657.05        2500.00        49.0741        50.2232       0.702730                 NaN            NaN            NaN            NaN
  1653.85        2500.00        48.6277        50.6636       0.708689                 NaN            NaN            NaN            NaN
  1650.64        2500.00        48.1974        51.0883       0.714287                 NaN            NaN            NaN            NaN
  1647.44        2500.00        47.7669        51.5132       0.719888                 NaN            NaN            NaN            NaN
  1644.23        2500.00        47.3440        51.9306       0.725385                 NaN            NaN            NaN            NaN
  1641.03        2500.00        46.7656        52.3087       0.728973       0.196710                 NaN            NaN            NaN
  1637.82        2500.00        45.7258        52.5097       0.727046        1.03748                 NaN            NaN            NaN
  1634.62        2500.00        44.6837        52.7110       0.725113        1.88015                 NaN            NaN            NaN
  1631.41        2500.00        43.6394        52.9127       0.723174        2.72473                 NaN            NaN            NaN
  1628.21        2500.00        42.5928        53.1147       0.721230        3.57123                 NaN            NaN            NaN
  1625.00        2500.00        41.5440        53.3171       0.719280        4.41963                 NaN            NaN            NaN
  1621.79        2500.00        40.4929        53.5198       0.717325        5.26995                 NaN            NaN            NaN
  1618.59        2500.00        39.4396        53.7229       0.715363        6.12218                 NaN            NaN            NaN
  1615.38        2500.00        38.3840        53.9263       0.713396        6.97633                 NaN            NaN            NaN
  1612.18        2500.00        37.6002        54.0702       0.710510        7.61911                 NaN            NaN            NaN
  1608.97        2500.00        36.8151        54.2143       0.707618        8.26299                 NaN            NaN            NaN
  1605.77        2500.00        36.0287        54.3586       0.704720        8.90797                 NaN            NaN            NaN
  1602.56        2500.00        35.2411        54.5031       0.701816        9.55404                 NaN            NaN            NaN
  1599.36        2500.00        34.4522        54.6477       0.698906        10.2012                 NaN            NaN            NaN
  1596.15        2500.00        33.6620        54.7925       0.695991        10.8495                 NaN            NaN            NaN
  1592.95        2500.00        32.8706        54.9375       0.693070        11.4988                 NaN            NaN            NaN
  1589.74        2500.00        32.0780        55.0826       0.690142        12.1493                 NaN            NaN            NaN
  1586.54        2500.00        31.4534        55.1894       0.686549        12.6706                 NaN            NaN            NaN
  1583.33        2500.00        30.8281        55.2964       0.682949        13.1926                 NaN            NaN            NaN
  1580.13        2500.00        30.2019        55.4034       0.679345        13.7153                 NaN            NaN            NaN
  1576.92        2500.00        29.5750        55.5105       0.675734        14.2388                 NaN            NaN            NaN
  1573.72        2500.00        28.9473        55.6177       0.672119        14.7629                 NaN            NaN            NaN
  1570.51        2500.00        28.3188        55.7250       0.668497        15.2878                 NaN            NaN            NaN
  1567.31        2500.00        27.6895        55.8324       0.664871        15.8133                 NaN            NaN            NaN
  1564.10        2500.00        27.0594        55.9398       0.661238        16.3396                 NaN            NaN            NaN
  1560.90        2500.00        26.5300        56.0233       0.656542        16.7901                 NaN            NaN            NaN
  1557.69        2500.00        26.0001        56.1069       0.651841        17.2412                 NaN            NaN            NaN
  1554.49        2500.00        25.4696        56.1905       0.647133        17.6928                 NaN            NaN            NaN
  1551.28        2500.00        24.9385        56.2742       0.642419        18.1449                 NaN            NaN            NaN
  1548.08        2500.00        24.4069        56.3579       0.637700        18.5975                 NaN            NaN            NaN
  1544.87        2500.00        23.8747        56.4417       0.632975        19.0507                 NaN            NaN            NaN
  1541.67        2500.00        23.3419        56.5255       0.628243        19.5043                 NaN            NaN            NaN
  1538.46        2500.00        22.8086        56.6094       0.623506        19.9585                 NaN            NaN            NaN
