|6.6.6
Archiving\03_Data\DeqLP/QFM_m3.75/T13/T13_6.tab                       
           1
T(K)    
  0.000000000000000E+000
  0.000000000000000E+000
           0
           3
T(K)           P(bar)         rho,kg/m3     
  2000.00        500.000        8099.88     
  1996.79        500.000        8101.72     
  1993.59        500.000        8103.55     
  1990.38        500.000        8105.38     
  1987.18        500.000        8107.21     
  1983.97        500.000        8109.03     
  1980.77        500.000        8110.86     
  1977.56        500.000        8112.68     
  1974.36        500.000        8114.50     
  1971.15        500.000        8116.32     
  1967.95        500.000        8118.14     
  1964.74        500.000        8119.96     
  1961.54        500.000        8121.78     
  1958.33        500.000        8123.59     
  1955.13        500.000        8125.41     
  1951.92        500.000        8127.22     
  1948.72        500.000        8129.03     
  1945.51        500.000        8130.84     
  1942.31        500.000        8132.64     
  1939.10        500.000        3398.34     
  1935.90        500.000        3224.38     
  1932.69        500.000        3187.68     
  1929.49        500.000        3179.03     
  1926.28        500.000        3175.39     
  1923.08        500.000        3173.51     
  1919.87        500.000        3174.74     
  1916.67        500.000        3175.78     
  1913.46        500.000        3176.68     
  1910.26        500.000        3177.49     
  1907.05        500.000        3179.65     
  1903.85        500.000        3181.80     
  1900.64        500.000        3183.66     
  1897.44        500.000        3185.35     
  1894.23        500.000        3187.67     
  1891.03        500.000        3189.78     
  1887.82        500.000        3191.71     
  1884.62        500.000        3193.49     
  1881.41        500.000        3195.73     
  1878.21        500.000        3197.27     
  1875.00        500.000        3200.33     
  1871.79        500.000        3203.18     
  1868.59        500.000        3206.48     
  1865.38        500.000        3209.57     
  1862.18        500.000        3212.47     
  1858.97        500.000        3215.20     
  1855.77        500.000        3217.78     
  1852.56        500.000        3220.23     
  1849.36        500.000        3222.55     
  1846.15        500.000        3224.76     
  1842.95        500.000        3227.61     
  1839.74        500.000        3230.32     
  1836.54        500.000        3232.92     
  1833.33        500.000        3235.42     
  1830.13        500.000        3237.81     
  1826.92        500.000        3240.11     
  1823.72        500.000        3242.32     
  1820.51        500.000        3244.45     
  1817.31        500.000        3247.02     
  1814.10        500.000        3249.50     
  1810.90        500.000        3251.90     
  1807.69        500.000        3254.22     
  1804.49        500.000        3256.47     
  1801.28        500.000        3258.65     
  1798.08        500.000        3260.76     
  1794.87        500.000        3262.82     
  1791.67        500.000        3265.13     
  1788.46        500.000        3267.38     
  1785.26        500.000        3269.57     
  1782.05        500.000        3271.71     
  1778.85        500.000        3273.79     
  1775.64        500.000        3275.82     
  1772.44        500.000        3277.80     
  1769.23        500.000        3279.73     
  1766.03        500.000        3281.80     
  1762.82        500.000        3283.83     
  1759.62        500.000        3285.81     
  1756.41        500.000        3287.75     
  1753.21        500.000        3289.65     
  1750.00        500.000        3291.52     
  1746.79        500.000        3293.34     
  1743.59        500.000        3295.13     
  1740.38        500.000        3296.95     
  1737.18        500.000        3298.74     
  1733.97        500.000        3300.50     
  1730.77        500.000        3302.23     
  1727.56        500.000        3303.93     
  1724.36        500.000        3305.60     
  1721.15        500.000        3307.25     
  1717.95        500.000        3308.87     
  1714.74        500.000        3310.45     
  1711.54        500.000        3312.01     
  1708.33        500.000        3313.55     
  1705.13        500.000        3315.07     
  1701.92        500.000        3316.57     
  1698.72        500.000        3318.04     
  1695.51        500.000        3319.50     
  1692.31        500.000        3320.94     
  1689.10        500.000        3322.29     
  1685.90        500.000        3323.62     
  1682.69        500.000        3324.94     
  1679.49        500.000        3326.24     
  1676.28        500.000        3327.53     
  1673.08        500.000        3328.81     
  1669.87        500.000        3330.07     
  1666.67        500.000        3331.32     
  1663.46        500.000        3332.48     
  1660.26        500.000        3333.63     
  1657.05        500.000        3334.77     
  1653.85        500.000        3335.91     
  1650.64        500.000        3337.03     
  1647.44        500.000        3338.14     
  1644.23        500.000        3339.24     
  1641.03        500.000        3340.34     
  1637.82        500.000        3341.34     
  1634.62        500.000        3342.34     
  1631.41        500.000        3343.33     
  1628.21        500.000        3344.31     
  1625.00        500.000        3345.29     
  1621.79        500.000        3346.26     
  1618.59        500.000        3347.22     
  1615.38        500.000        3348.18     
  1612.18        500.000        3349.10     
  1608.97        500.000        3350.01     
  1605.77        500.000        3350.90     
  1602.56        500.000        3351.65     
  1599.36        500.000        3351.11     
  1596.15        500.000        3350.60     
  1592.95        500.000        3350.12     
  1589.74        500.000        3349.65     
  1586.54        500.000        3349.41     
  1583.33        500.000        3349.19     
  1580.13        500.000        3348.98     
  1576.92        500.000        3348.78     
  1573.72        500.000        3348.59     
  1570.51        500.000        3348.42     
  1567.31        500.000        3348.26     
  1564.10        500.000        3348.10     
  1560.90        500.000        3348.11     
  1557.69        500.000        3348.12     
  1554.49        500.000        3348.14     
  1551.28        500.000        3348.16     
  1548.08        500.000        3348.19     
  1544.87        500.000        3348.22     
  1541.67        500.000        3348.27     
  1538.46        500.000        3348.31     
  1535.26        500.000        3348.43     
  1532.05        500.000        3348.55     
  1528.85        500.000        3348.68     
  1525.64        500.000        3348.80     
  1522.44        500.000        3348.94     
  1519.23        500.000        3349.07     
  1516.03        500.000        3349.21     
  1512.82        500.000        3349.36     
  1509.62        500.000        3349.53     
  1506.41        500.000        3349.70     
  1503.21        500.000        3349.87     
  1500.00        500.000        3350.05     
  1496.79        500.000        3350.24     
  1493.59        500.000        3350.42     
  1490.38        500.000        3350.61     
  1487.18        500.000        3350.80     
  1483.97        500.000        3351.00     
  1480.77        500.000        3351.20     
  1477.56        500.000        3351.40     
  1474.36        500.000        3351.60     
  1471.15        500.000        3351.81     
  1467.95        500.000        3352.00     
  1464.74        500.000        3352.20     
  1461.54        500.000        3352.40     
  1458.33        500.000        3352.66     
  1455.13        500.000        3352.93     
  1451.92        500.000        3353.21     
  1448.72        500.000        3353.48     
  1445.51        500.000        3353.78     
  1442.31        500.000        3354.09     
  1439.10        500.000        3353.73     
  1435.90        500.000        3351.92     
  1432.69        500.000        3352.37     
  1429.49        500.000        3352.82     
  1426.28        500.000        3353.27     
  1423.08        500.000        3353.71     
  1419.87        500.000        3354.16     
  1416.67        500.000        3354.61     
  1413.46        500.000        3355.05     
  1410.26        500.000        3345.20     
  1407.05        500.000        3345.64     
  1403.85        500.000        3346.08     
  1400.64        500.000        3346.52     
  1397.44        500.000        3346.96     
  1394.23        500.000        3347.40     
  1391.03        500.000        3347.84     
  1387.82        500.000        3348.28     
  1384.62        500.000        3343.42     
  1381.41        500.000        3343.86     
  1378.21        500.000        3344.29     
  1375.00        500.000        3344.73     
  1371.79        500.000        3345.16     
  1368.59        500.000        3345.60     
  1365.38        500.000        3346.03     
  1362.18        500.000        3346.47     
  1358.97        500.000        3343.13     
  1355.77        500.000        3343.56     
  1352.56        500.000        3343.99     
  1349.36        500.000        3344.42     
  1346.15        500.000        3344.86     
  1342.95        500.000        3345.29     
  1339.74        500.000        3345.72     
  1336.54        500.000        3346.15     
  1333.33        500.000        3343.52     
  1330.13        500.000        3343.94     
  1326.92        500.000        3344.37     
  1323.72        500.000        3344.80     
  1320.51        500.000        3345.23     
  1317.31        500.000        3345.66     
  1314.10        500.000        3346.08     
  1310.90        500.000        3346.51     
  1307.69        500.000        3344.34     
  1304.49        500.000        3344.76     
  1301.28        500.000        3344.60     
  1298.08        500.000        3337.89     
  1294.87        500.000        3338.27     
  1291.67        500.000        3338.69     
  1288.46        500.000        3339.11     
  1285.26        500.000        3339.53     
  1282.05        500.000        3339.78     
  1278.85        500.000        3340.20     
  1275.64        500.000        3340.62     
  1272.44        500.000        3341.04     
  1269.23        500.000        3341.46     
  1266.03        500.000        3341.88     
  1262.82        500.000        3342.30     
  1259.62        500.000        3342.72     
  1256.41        500.000        3342.81     
  1253.21        500.000        3343.23     
  1250.00        500.000        3343.65     
  1246.79        500.000        3344.07     
  1243.59        500.000        3344.49     
  1240.38        500.000        3344.91     
  1237.18        500.000        3345.32     
  1233.97        500.000        3345.74     
  1230.77        500.000        3345.85     
  1227.56        500.000        3346.27     
  1224.36        500.000        3346.69     
  1221.15        500.000        3347.10     
  1217.95        500.000        3347.52     
  1214.74        500.000        3347.94     
  1211.54        500.000        3348.35     
  1208.33        500.000        3348.77     
  1205.13        500.000        3348.91     
  1201.92        500.000        3349.32     
  1198.72        500.000        3349.74     
  1195.51        500.000        3350.15     
  1192.31        500.000        3350.57     
  1189.10        500.000        3350.98     
  1185.90        500.000        3351.39     
  1182.69        500.000        3351.81     
  1179.49        500.000        3351.97     
  1176.28        500.000        3352.38     
  1173.08        500.000        3352.80     
  1169.87        500.000        3353.21     
  1166.67        500.000        3353.62     
  1163.46        500.000        3354.03     
  1160.26        500.000        3354.44     
  1157.05        500.000        3354.86     
  1153.85        500.000        3355.05     
  1150.64        500.000        3355.46     
  1147.44        500.000        3355.87     
  1144.23        500.000        3356.28     
  1141.03        500.000        3356.69     
  1137.82        500.000        3357.10     
  1134.62        500.000        3357.51     
  1131.41        500.000        3357.91     
  1128.21        500.000        3358.13     
  1125.00        500.000        3358.54     
  1121.79        500.000        3358.95     
  1118.59        500.000        3359.35     
  1115.38        500.000        3359.76     
  1112.18        500.000        3360.17     
  1108.97        500.000        3360.58     
  1105.77        500.000        3360.98     
  1102.56        500.000        3361.22     
  1099.36        500.000        3361.63     
  1096.15        500.000        3362.04     
  1092.95        500.000        3362.44     
  1089.74        500.000        3362.85     
  1086.54        500.000        3363.25     
  1083.33        500.000        3363.66     
  1080.13        500.000        3364.06     
  1076.92        500.000        3364.33     
  1073.72        500.000        3364.74     
  1070.51        500.000        3365.14     
  1067.31        500.000        3365.54     
  1064.10        500.000        3365.89     
  1060.90        500.000        3366.28     
  1057.69        500.000        3366.67     
  1054.49        500.000        3367.06     
  1051.28        500.000        3367.45     
  1048.08        500.000        3367.86     
  1044.87        500.000        3368.26     
  1041.67        500.000        3368.66     
  1038.46        500.000        3369.06     
  1035.26        500.000        3369.47     
  1032.05        500.000        3369.87     
  1028.85        500.000        3370.27     
  1025.64        500.000        3370.56     
  1022.44        500.000        3370.96     
  1019.23        500.000        3371.36     
  1016.03        500.000        3371.76     
  1012.82        500.000        3372.16     
  1009.62        500.000        3372.56     
  1006.41        500.000        3372.96     
  1003.21        500.000        3373.36     
  1000.00        500.000        3373.67     
