|6.6.6
Archiving\03_Data\DeqLP/QFM_m3.25/T13/T13_6.tab                       
           1
T(K)    
  0.000000000000000E+000
  0.000000000000000E+000
           0
           3
T(K)           P(bar)         rho,kg/m3     
  2000.00        500.000        8099.88     
  1996.79        500.000        8101.72     
  1993.59        500.000        8103.55     
  1990.38        500.000        8105.38     
  1987.18        500.000        8107.21     
  1983.97        500.000        8109.03     
  1980.77        500.000        8110.86     
  1977.56        500.000        8112.68     
  1974.36        500.000        8114.50     
  1971.15        500.000        8116.32     
  1967.95        500.000        8118.14     
  1964.74        500.000        8119.96     
  1961.54        500.000        8121.78     
  1958.33        500.000        8123.59     
  1955.13        500.000        8125.41     
  1951.92        500.000        8127.22     
  1948.72        500.000        8129.03     
  1945.51        500.000        8130.84     
  1942.31        500.000        8132.64     
  1939.10        500.000        3277.14     
  1935.90        500.000        3188.25     
  1932.69        500.000        3178.30     
  1929.49        500.000        3174.43     
  1926.28        500.000        3172.51     
  1923.08        500.000        3171.47     
  1919.87        500.000        3172.03     
  1916.67        500.000        3173.97     
  1913.46        500.000        3175.32     
  1910.26        500.000        3176.49     
  1907.05        500.000        3178.65     
  1903.85        500.000        3180.54     
  1900.64        500.000        3182.23     
  1897.44        500.000        3183.74     
  1894.23        500.000        3186.21     
  1891.03        500.000        3188.45     
  1887.82        500.000        3190.48     
  1884.62        500.000        3192.36     
  1881.41        500.000        3193.70     
  1878.21        500.000        3196.12     
  1875.00        500.000        3199.30     
  1871.79        500.000        3202.26     
  1868.59        500.000        3205.56     
  1865.38        500.000        3208.66     
  1862.18        500.000        3211.56     
  1858.97        500.000        3214.29     
  1855.77        500.000        3216.87     
  1852.56        500.000        3219.31     
  1849.36        500.000        3221.63     
  1846.15        500.000        3223.83     
  1842.95        500.000        3226.66     
  1839.74        500.000        3229.36     
  1836.54        500.000        3231.95     
  1833.33        500.000        3234.42     
  1830.13        500.000        3236.80     
  1826.92        500.000        3239.08     
  1823.72        500.000        3241.28     
  1820.51        500.000        3243.39     
  1817.31        500.000        3245.97     
  1814.10        500.000        3248.47     
  1810.90        500.000        3250.87     
  1807.69        500.000        3253.20     
  1804.49        500.000        3255.46     
  1801.28        500.000        3257.65     
  1798.08        500.000        3259.77     
  1794.87        500.000        3261.83     
  1791.67        500.000        3264.18     
  1788.46        500.000        3266.48     
  1785.26        500.000        3268.71     
  1782.05        500.000        3270.88     
  1778.85        500.000        3273.00     
  1775.64        500.000        3275.06     
  1772.44        500.000        3277.08     
  1769.23        500.000        3279.04     
  1766.03        500.000        3281.08     
  1762.82        500.000        3283.07     
  1759.62        500.000        3285.03     
  1756.41        500.000        3286.93     
  1753.21        500.000        3288.80     
  1750.00        500.000        3290.64     
  1746.79        500.000        3292.43     
  1743.59        500.000        3294.19     
  1740.38        500.000        3296.03     
  1737.18        500.000        3297.84     
  1733.97        500.000        3299.61     
  1730.77        500.000        3301.36     
  1727.56        500.000        3303.07     
  1724.36        500.000        3304.76     
  1721.15        500.000        3306.41     
  1717.95        500.000        3308.04     
  1714.74        500.000        3309.63     
  1711.54        500.000        3311.19     
  1708.33        500.000        3312.73     
  1705.13        500.000        3314.25     
  1701.92        500.000        3315.74     
  1698.72        500.000        3317.22     
  1695.51        500.000        3318.68     
  1692.31        500.000        3320.11     
  1689.10        500.000        3321.49     
  1685.90        500.000        3322.85     
  1682.69        500.000        3324.19     
  1679.49        500.000        3325.52     
  1676.28        500.000        3326.83     
  1673.08        500.000        3328.13     
  1669.87        500.000        3329.42     
  1666.67        500.000        3330.69     
  1663.46        500.000        3331.86     
  1660.26        500.000        3333.03     
  1657.05        500.000        3334.18     
  1653.85        500.000        3335.33     
  1650.64        500.000        3336.46     
  1647.44        500.000        3337.59     
  1644.23        500.000        3338.70     
  1641.03        500.000        3339.81     
  1637.82        500.000        3340.82     
  1634.62        500.000        3341.83     
  1631.41        500.000        3342.84     
  1628.21        500.000        3343.83     
  1625.00        500.000        3344.82     
  1621.79        500.000        3345.80     
  1618.59        500.000        3346.78     
  1615.38        500.000        3347.74     
  1612.18        500.000        3348.66     
  1608.97        500.000        3349.58     
  1605.77        500.000        3350.47     
  1602.56        500.000        3351.31     
  1599.36        500.000        3350.78     
  1596.15        500.000        3350.27     
  1592.95        500.000        3349.78     
  1589.74        500.000        3349.31     
  1586.54        500.000        3349.08     
  1583.33        500.000        3348.86     
  1580.13        500.000        3348.65     
  1576.92        500.000        3348.45     
  1573.72        500.000        3348.27     
  1570.51        500.000        3348.10     
  1567.31        500.000        3347.94     
  1564.10        500.000        3347.79     
  1560.90        500.000        3347.80     
  1557.69        500.000        3347.81     
  1554.49        500.000        3347.83     
  1551.28        500.000        3347.86     
  1548.08        500.000        3347.89     
  1544.87        500.000        3347.93     
  1541.67        500.000        3347.98     
  1538.46        500.000        3348.03     
  1535.26        500.000        3348.15     
  1532.05        500.000        3348.27     
  1528.85        500.000        3348.40     
  1525.64        500.000        3348.53     
  1522.44        500.000        3348.67     
  1519.23        500.000        3348.81     
  1516.03        500.000        3348.95     
  1512.82        500.000        3349.10     
  1509.62        500.000        3349.27     
  1506.41        500.000        3349.45     
  1503.21        500.000        3349.63     
  1500.00        500.000        3349.81     
  1496.79        500.000        3350.00     
  1493.59        500.000        3350.18     
  1490.38        500.000        3350.37     
  1487.18        500.000        3350.57     
  1483.97        500.000        3350.77     
  1480.77        500.000        3350.97     
  1477.56        500.000        3351.18     
  1474.36        500.000        3351.38     
  1471.15        500.000        3351.59     
  1467.95        500.000        3351.78     
  1464.74        500.000        3352.00     
  1461.54        500.000        3352.21     
  1458.33        500.000        3352.48     
  1455.13        500.000        3352.75     
  1451.92        500.000        3353.02     
  1448.72        500.000        3353.29     
  1445.51        500.000        3353.60     
  1442.31        500.000        3353.90     
  1439.10        500.000        3354.18     
  1435.90        500.000        3352.32     
  1432.69        500.000        3352.77     
  1429.49        500.000        3353.22     
  1426.28        500.000        3353.66     
  1423.08        500.000        3354.11     
  1419.87        500.000        3354.56     
  1416.67        500.000        3355.00     
  1413.46        500.000        3355.45     
  1410.26        500.000        3345.45     
  1407.05        500.000        3345.89     
  1403.85        500.000        3346.33     
  1400.64        500.000        3346.77     
  1397.44        500.000        3347.21     
  1394.23        500.000        3347.65     
  1391.03        500.000        3348.09     
  1387.82        500.000        3348.53     
  1384.62        500.000        3343.63     
  1381.41        500.000        3344.07     
  1378.21        500.000        3344.50     
  1375.00        500.000        3344.94     
  1371.79        500.000        3345.37     
  1368.59        500.000        3345.81     
  1365.38        500.000        3346.24     
  1362.18        500.000        3346.68     
  1358.97        500.000        3343.31     
  1355.77        500.000        3343.74     
  1352.56        500.000        3344.17     
  1349.36        500.000        3344.60     
  1346.15        500.000        3345.03     
  1342.95        500.000        3345.47     
  1339.74        500.000        3345.90     
  1336.54        500.000        3346.33     
  1333.33        500.000        3343.67     
  1330.13        500.000        3344.10     
  1326.92        500.000        3344.53     
  1323.72        500.000        3344.96     
  1320.51        500.000        3345.38     
  1317.31        500.000        3345.81     
  1314.10        500.000        3346.24     
  1310.90        500.000        3346.67     
  1307.69        500.000        3344.46     
  1304.49        500.000        3344.89     
  1301.28        500.000        3344.72     
  1298.08        500.000        3338.09     
  1294.87        500.000        3338.46     
  1291.67        500.000        3338.89     
  1288.46        500.000        3339.31     
  1285.26        500.000        3339.73     
  1282.05        500.000        3339.97     
  1278.85        500.000        3340.39     
  1275.64        500.000        3340.81     
  1272.44        500.000        3341.23     
  1269.23        500.000        3341.65     
  1266.03        500.000        3342.07     
  1262.82        500.000        3342.49     
  1259.62        500.000        3342.91     
  1256.41        500.000        3342.99     
  1253.21        500.000        3343.41     
  1250.00        500.000        3343.83     
  1246.79        500.000        3344.25     
  1243.59        500.000        3344.67     
  1240.38        500.000        3345.08     
  1237.18        500.000        3345.50     
  1233.97        500.000        3345.92     
  1230.77        500.000        3346.02     
  1227.56        500.000        3346.44     
  1224.36        500.000        3346.86     
  1221.15        500.000        3347.27     
  1217.95        500.000        3347.69     
  1214.74        500.000        3348.11     
  1211.54        500.000        3348.52     
  1208.33        500.000        3348.94     
  1205.13        500.000        3349.07     
  1201.92        500.000        3349.49     
  1198.72        500.000        3349.90     
  1195.51        500.000        3350.31     
  1192.31        500.000        3350.73     
  1189.10        500.000        3351.14     
  1185.90        500.000        3351.56     
  1182.69        500.000        3351.97     
  1179.49        500.000        3352.13     
  1176.28        500.000        3352.54     
  1173.08        500.000        3352.95     
  1169.87        500.000        3353.36     
  1166.67        500.000        3353.78     
  1163.46        500.000        3354.19     
  1160.26        500.000        3354.60     
  1157.05        500.000        3355.01     
  1153.85        500.000        3355.19     
  1150.64        500.000        3355.60     
  1147.44        500.000        3356.01     
  1144.23        500.000        3356.42     
  1141.03        500.000        3356.83     
  1137.82        500.000        3357.24     
  1134.62        500.000        3357.65     
  1131.41        500.000        3358.06     
  1128.21        500.000        3358.27     
  1125.00        500.000        3358.68     
  1121.79        500.000        3359.09     
  1118.59        500.000        3359.50     
  1115.38        500.000        3359.90     
  1112.18        500.000        3360.31     
  1108.97        500.000        3360.72     
  1105.77        500.000        3361.12     
  1102.56        500.000        3361.36     
  1099.36        500.000        3361.77     
  1096.15        500.000        3362.17     
  1092.95        500.000        3362.58     
  1089.74        500.000        3362.99     
  1086.54        500.000        3363.39     
  1083.33        500.000        3363.80     
  1080.13        500.000        3364.20     
  1076.92        500.000        3364.46     
  1073.72        500.000        3364.86     
  1070.51        500.000        3365.27     
  1067.31        500.000        3365.67     
  1064.10        500.000        3366.02     
  1060.90        500.000        3366.41     
  1057.69        500.000        3366.80     
  1054.49        500.000        3367.19     
  1051.28        500.000        3367.58     
  1048.08        500.000        3367.98     
  1044.87        500.000        3368.38     
  1041.67        500.000        3368.78     
  1038.46        500.000        3369.19     
  1035.26        500.000        3369.59     
  1032.05        500.000        3369.99     
  1028.85        500.000        3370.39     
  1025.64        500.000        3370.68     
  1022.44        500.000        3371.08     
  1019.23        500.000        3371.48     
  1016.03        500.000        3371.88     
  1012.82        500.000        3372.28     
  1009.62        500.000        3372.68     
  1006.41        500.000        3373.08     
  1003.21        500.000        3373.48     
  1000.00        500.000        3373.79     
