|6.6.6
Archiving\03_Data\Dfrac/QFM_m0.25/YM20/YM20_6.tab                       
           1
T(K)    
  0.000000000000000E+000
  0.000000000000000E+000
           0
           3
T(K)           P(bar)         rho,kg/m3     
  2000.00        2500.00        3299.20     
  1997.49        2500.00        2919.10     
  1994.99        2500.00        2919.67     
  1992.48        2500.00        2920.25     
  1989.97        2500.00        2920.82     
  1987.47        2500.00        2921.40     
  1984.96        2500.00        2921.97     
  1982.46        2500.00        2922.55     
  1979.95        2500.00        2923.14     
  1977.44        2500.00        2923.70     
  1974.94        2500.00        2924.27     
  1972.43        2500.00        2924.85     
  1969.92        2500.00        2925.42     
  1967.42        2500.00        2926.00     
  1964.91        2500.00        2926.57     
  1962.41        2500.00        2927.15     
  1959.90        2500.00        2927.72     
  1957.39        2500.00        2928.30     
  1954.89        2500.00        2928.87     
  1952.38        2500.00        2929.45     
  1949.87        2500.00        2930.02     
  1947.37        2500.00        2930.60     
  1944.86        2500.00        2931.17     
  1942.36        2500.00        2931.75     
  1939.85        2500.00        2932.32     
  1937.34        2500.00        2932.90     
  1934.84        2500.00        2933.47     
  1932.33        2500.00        2934.05     
  1929.82        2500.00        2934.63     
  1927.32        2500.00        2935.20     
  1924.81        2500.00        2935.78     
  1922.31        2500.00        4274.95     
  1919.80        2500.00        4274.57     
  1917.29        2500.00        4273.01     
  1914.79        2500.00        4274.89     
  1912.28        2500.00        4274.46     
  1909.77        2500.00        3200.28     
  1907.27        2500.00        3161.96     
  1904.76        2500.00        3163.47     
  1902.26        2500.00        3164.91     
  1899.75        2500.00        3166.09     
  1897.24        2500.00        3168.26     
  1894.74        2500.00        3169.37     
  1892.23        2500.00        3171.26     
  1889.72        2500.00        3172.61     
  1887.22        2500.00        3174.11     
  1884.71        2500.00        3175.64     
  1882.21        2500.00        3177.42     
  1879.70        2500.00        3178.80     
  1877.19        2500.00        3180.34     
  1874.69        2500.00        3181.99     
  1872.18        2500.00        3183.57     
  1869.67        2500.00        3185.07     
  1867.17        2500.00        3186.32     
  1864.66        2500.00        3187.95     
  1862.16        2500.00        3189.86     
  1859.65        2500.00        3191.32     
  1857.14        2500.00        3193.25     
  1854.64        2500.00        3194.40     
  1852.13        2500.00        3195.56     
  1849.62        2500.00        3197.54     
  1847.12        2500.00        3199.50     
  1844.61        2500.00        3200.84     
  1842.11        2500.00        3201.65     
  1839.60        2500.00        3204.00     
  1837.09        2500.00        3205.32     
  1834.59        2500.00        3206.95     
  1832.08        2500.00        3208.61     
  1829.57        2500.00        3209.96     
  1827.07        2500.00        3211.96     
  1824.56        2500.00        3213.71     
  1822.06        2500.00        3215.62     
  1819.55        2500.00        3217.05     
  1817.04        2500.00        3218.19     
  1814.54        2500.00        3220.96     
  1812.03        2500.00        3221.40     
  1809.52        2500.00        3223.42     
  1807.02        2500.00        3225.15     
  1804.51        2500.00        3227.36     
  1802.01        2500.00        3227.92     
  1799.50        2500.00        3229.76     
  1796.99        2500.00        3230.61     
  1794.49        2500.00        3233.29     
  1791.98        2500.00        3233.85     
  1789.47        2500.00        3235.82     
  1786.97        2500.00        3238.03     
  1784.46        2500.00        3239.77     
  1781.95        2500.00        3241.08     
  1779.45        2500.00        3242.79     
  1776.94        2500.00        3244.41     
  1774.44        2500.00        3246.05     
  1771.93        2500.00        3247.76     
  1769.42        2500.00        3249.22     
  1766.92        2500.00        3250.46     
  1764.41        2500.00        3252.73     
  1761.90        2500.00        3255.43     
  1759.40        2500.00        3255.79     
  1756.89        2500.00        3257.53     
  1754.39        2500.00        3259.62     
  1751.88        2500.00        3325.42     
  1749.37        2500.00        3242.46     
  1746.87        2500.00        3246.93     
  1744.36        2500.00        3249.43     
  1741.85        2500.00        3252.20     
  1739.35        2500.00        3259.44     
  1736.84        2500.00        3262.52     
  1734.34        2500.00        3270.54     
  1731.83        2500.00        3273.98     
  1729.32        2500.00        3275.28     
  1726.82        2500.00        3277.24     
  1724.31        2500.00        3279.16     
  1721.80        2500.00        3281.01     
  1719.30        2500.00        3282.17     
  1716.79        2500.00        3283.91     
  1714.29        2500.00        3285.69     
  1711.78        2500.00        3287.89     
  1709.27        2500.00        3289.09     
  1706.77        2500.00        3291.00     
  1704.26        2500.00        3291.79     
  1701.75        2500.00        3294.16     
  1699.25        2500.00        3294.96     
  1696.74        2500.00        3297.48     
  1694.24        2500.00        3298.43     
  1691.73        2500.00        3300.17     
  1689.22        2500.00        3301.42     
  1686.72        2500.00        3303.36     
  1684.21        2500.00        3304.74     
  1681.70        2500.00        3306.97     
  1679.20        2500.00        3309.16     
  1676.69        2500.00        3309.82     
  1674.19        2500.00        3311.59     
  1671.68        2500.00        3312.77     
  1669.17        2500.00        3314.90     
  1666.67        2500.00        3316.44     
  1664.16        2500.00        3318.19     
  1661.65        2500.00        3317.02     
  1659.15        2500.00        3323.64     
  1656.64        2500.00        3325.16     
  1654.14        2500.00        3324.08     
  1651.63        2500.00        3326.26     
  1649.12        2500.00        3263.99     
  1646.62        2500.00        3240.30     
  1644.11        2500.00        3241.83     
  1641.60        2500.00        3242.90     
  1639.10        2500.00        3244.32     
  1636.59        2500.00        3246.11     
  1634.09        2500.00        3246.64     
  1631.58        2500.00        3247.86     
  1629.07        2500.00        3248.85     
  1626.57        2500.00        3250.06     
  1624.06        2500.00        3252.38     
  1621.55        2500.00        3253.19     
  1619.05        2500.00        3254.18     
  1616.54        2500.00        3255.47     
  1614.04        2500.00        3256.85     
  1611.53        2500.00        3257.91     
  1609.02        2500.00        3259.02     
  1606.52        2500.00        3260.00     
  1604.01        2500.00        3261.13     
  1601.50        2500.00        3262.45     
  1599.00        2500.00        3263.48     
  1596.49        2500.00        3265.10     
  1593.98        2500.00        3265.52     
  1591.48        2500.00        3267.00     
  1588.97        2500.00        3268.65     
  1586.47        2500.00        3269.40     
  1583.96        2500.00        3270.09     
  1581.45        2500.00        3272.41     
  1578.95        2500.00        3272.76     
  1576.44        2500.00        3273.78     
  1573.93        2500.00        3275.30     
  1571.43        2500.00        3276.42     
  1568.92        2500.00        3277.79     
  1566.42        2500.00        3278.61     
  1563.91        2500.00        3280.09     
  1561.40        2500.00        3280.57     
  1558.90        2500.00        3282.29     
  1556.39        2500.00        3283.30     
  1553.88        2500.00        3284.36     
  1551.38        2500.00        3286.16     
  1548.87        2500.00        3286.29     
  1546.37        2500.00        3287.49     
  1543.86        2500.00        3288.51     
  1541.35        2500.00        3289.25     
  1538.85        2500.00        3291.46     
  1536.34        2500.00        3291.97     
  1533.83        2500.00        3292.98     
  1531.33        2500.00        3294.59     
  1528.82        2500.00        3295.33     
  1526.32        2500.00        3296.21     
  1523.81        2500.00        3297.03     
  1521.30        2500.00        3298.10     
  1518.80        2500.00        3299.85     
  1516.29        2500.00        3299.49     
  1513.78        2500.00        3300.83     
  1511.28        2500.00        3302.04     
  1508.77        2500.00        3303.28     
  1506.27        2500.00        3303.93     
  1503.76        2500.00        3307.24     
  1501.25        2500.00        3301.07     
  1498.75        2500.00        3305.26     
  1496.24        2500.00        3308.81     
  1493.73        2500.00        3308.37     
  1491.23        2500.00        3309.52     
  1488.72        2500.00        3309.30     
  1486.22        2500.00        3310.11     
  1483.71        2500.00        3288.50     
  1481.20        2500.00        3287.85     
  1478.70        2500.00        3289.85     
  1476.19        2500.00        3292.14     
  1473.68        2500.00        3294.63     
  1471.18        2500.00        3297.23     
  1468.67        2500.00        3299.18     
  1466.17        2500.00        3301.44     
  1463.66        2500.00        3303.92     
  1461.15        2500.00        3306.28     
  1458.65        2500.00        3308.36     
  1456.14        2500.00        3310.92     
  1453.63        2500.00        3312.94     
  1451.13        2500.00        3314.31     
  1448.62        2500.00        3314.02     
  1446.12        2500.00        3316.13     
  1443.61        2500.00        3318.62     
  1441.10        2500.00        3321.46     
  1438.60        2500.00        3321.94     
  1436.09        2500.00        3183.38     
  1433.58        2500.00        3150.70     
  1431.08        2500.00        3155.09     
  1428.57        2500.00        3159.46     
  1426.07        2500.00        3163.92     
  1423.56        2500.00        3168.22     
  1421.05        2500.00        3172.64     
  1418.55        2500.00        3177.06     
  1416.04        2500.00        3181.68     
  1413.53        2500.00        3186.15     
  1411.03        2500.00        3190.99     
  1408.52        2500.00        3195.63     
  1406.02        2500.00        3200.57     
  1403.51        2500.00        3205.17     
  1401.00        2500.00        3210.01     
  1398.50        2500.00        3214.88     
  1395.99        2500.00        3219.72     
  1393.48        2500.00        3224.44     
  1390.98        2500.00        3229.76     
  1388.47        2500.00        3234.58     
  1385.96        2500.00        3239.77     
  1383.46        2500.00        3244.42     
  1380.95        2500.00        3249.56     
  1378.45        2500.00        3254.59     
  1375.94        2500.00        3259.48     
  1373.43        2500.00        3264.42     
  1370.93        2500.00        3269.39     
  1368.42        2500.00        3274.32     
  1365.91        2500.00        3279.45     
  1363.41        2500.00        3283.77     
  1360.90        2500.00        3288.98     
  1358.40        2500.00        3293.68     
  1355.89        2500.00        3308.27     
  1353.38        2500.00        3408.78     
  1350.88        2500.00        3409.99     
  1348.37        2500.00        3411.34     
  1345.86        2500.00        3412.43     
  1343.36        2500.00        3413.63     
  1340.85        2500.00        3414.52     
  1338.35        2500.00        3415.40     
  1335.84        2500.00        3416.00     
  1333.33        2500.00        3416.32     
  1330.83        2500.00        3416.91     
  1328.32        2500.00        3417.23     
  1325.81        2500.00        3417.59     
  1323.31        2500.00        3417.81     
  1320.80        2500.00        3417.87     
  1318.30        2500.00        3417.82     
  1315.79        2500.00        3417.73     
  1313.28        2500.00        3417.48     
  1310.78        2500.00        3417.26     
  1308.27        2500.00        3416.95     
  1305.76        2500.00        3416.42     
  1303.26        2500.00        3415.84     
  1300.75        2500.00        3415.15     
  1298.25        2500.00        3414.54     
  1295.74        2500.00        3413.90     
  1293.23        2500.00        3413.06     
  1290.73        2500.00        2908.91     
  1288.22        2500.00        2890.14     
  1285.71        2500.00        2891.01     
  1283.21        2500.00        2900.85     
  1280.70        2500.00        2897.33     
  1278.20        2500.00        2900.22     
  1275.69        2500.00        3029.25     
  1273.18        2500.00        2896.26     
  1270.68        2500.00        2907.45     
  1268.17        2500.00        2892.52     
  1265.66        2500.00        2917.85     
  1263.16        2500.00        3131.80     
  1260.65        2500.00        2914.30     
  1258.15        2500.00        2912.06     
  1255.64        2500.00        2895.46     
  1253.13        2500.00        2903.27     
  1250.63        2500.00        2909.83     
  1248.12        2500.00        2915.14     
  1245.61        2500.00        2887.25     
  1243.11        2500.00        2906.34     
  1240.60        2500.00        2887.62     
  1238.10        2500.00        2688.35     
  1235.59        2500.00        2790.21     
  1233.08        2500.00        2727.10     
  1230.58        2500.00        2714.89     
  1228.07        2500.00        2713.41     
  1225.56        2500.00        2702.87     
  1223.06        2500.00        2679.98     
  1220.55        2500.00        2680.10     
  1218.05        2500.00        2680.22     
  1215.54        2500.00        2680.36     
  1213.03        2500.00        2680.22     
  1210.53        2500.00        2680.69     
  1208.02        2500.00        2680.79     
  1205.51        2500.00        2680.56     
  1203.01        2500.00        2680.95     
  1200.50        2500.00        2681.07     
  1197.99        2500.00        2681.17     
  1195.49        2500.00        2681.29     
  1192.98        2500.00        2681.41     
  1190.48        2500.00        2681.52     
  1187.97        2500.00        2681.63     
  1185.46        2500.00        2681.72     
  1182.96        2500.00        2681.84     
  1180.45        2500.00        2682.09     
  1177.94        2500.00        2682.24     
  1175.44        2500.00        2682.40     
  1172.93        2500.00        2682.56     
  1170.43        2500.00        2682.62     
  1167.92        2500.00        2682.87     
  1165.41        2500.00        2682.93     
  1162.91        2500.00        2683.10     
  1160.40        2500.00        2683.26     
  1157.89        2500.00        2683.49     
  1155.39        2500.00        2683.83     
  1152.88        2500.00        2684.17     
  1150.38        2500.00        2684.52     
  1147.87        2500.00        2684.88     
  1145.36        2500.00        2685.27     
  1142.86        2500.00        2685.63     
  1140.35        2500.00        2686.01     
  1137.84        2500.00        2686.38     
  1135.34        2500.00        2686.77     
  1132.83        2500.00        2687.17     
  1130.33        2500.00        2687.55     
  1127.82        2500.00        2688.01     
  1125.31        2500.00        2688.44     
  1122.81        2500.00        2688.88     
  1120.30        2500.00        2689.33     
  1117.79        2500.00        2689.79     
  1115.29        2500.00        2690.27     
  1112.78        2500.00        2690.78     
  1110.28        2500.00        2691.28     
  1107.77        2500.00        2691.80     
  1105.26        2500.00        2692.35     
  1102.76        2500.00        2692.92     
  1100.25        2500.00        2693.27     
  1097.74        2500.00        2694.11     
  1095.24        2500.00        2694.75     
  1092.73        2500.00        2694.95     
  1090.23        2500.00        2696.10     
  1087.72        2500.00        2696.84     
  1085.21        2500.00        2697.59     
  1082.71        2500.00        2697.40     
  1080.20        2500.00        2698.05     
  1077.69        2500.00        2699.17     
  1075.19        2500.00        2701.19     
  1072.68        2500.00        2702.13     
  1070.18        2500.00        2702.23     
  1067.67        2500.00        2702.33     
  1065.16        2500.00        2702.46     
  1062.66        2500.00        2702.59     
  1060.15        2500.00        2702.71     
  1057.64        2500.00        2702.81     
  1055.14        2500.00        2702.91     
  1052.63        2500.00        2703.03     
  1050.13        2500.00        2703.15     
  1047.62        2500.00        2703.27     
  1045.11        2500.00        2703.38     
  1042.61        2500.00        2703.50     
  1040.10        2500.00        2703.62     
  1037.59        2500.00        2703.76     
  1035.09        2500.00        2703.82     
  1032.58        2500.00        2703.95     
  1030.08        2500.00        2704.12     
  1027.57        2500.00        2704.24     
  1025.06        2500.00        2704.26     
  1022.56        2500.00        2697.92     
  1020.05        2500.00        2704.56     
  1017.54        2500.00        2704.72     
  1015.04        2500.00        2704.68     
  1012.53        2500.00        2704.92     
  1010.03        2500.00        2705.04     
  1007.52        2500.00        2705.17     
  1005.01        2500.00        2705.38     
  1002.51        2500.00        2705.39     
  1000.00        2500.00        2705.49     
