|6.6.6
Archiving\03_Data\eq/QFM_m1.5/GRV/GRV_3.tab                               
           1
T(K)    
  0.000000000000000E+000
  0.000000000000000E+000
           0
           9
T(K)           P(bar)         melt(TH)       pxmn           Sp(TH)         O(HP)          Opx(TH)        Cpx(TH)        Cpx(TH)       
  2000.00        2500.00        99.3207       0.679337                 NaN            NaN            NaN            NaN            NaN
  1996.79        2500.00        99.3206       0.679409                 NaN            NaN            NaN            NaN            NaN
  1993.59        2500.00        99.3205       0.679482                 NaN            NaN            NaN            NaN            NaN
  1990.38        2500.00        99.3204       0.679555                 NaN            NaN            NaN            NaN            NaN
  1987.18        2500.00        99.3204       0.679627                 NaN            NaN            NaN            NaN            NaN
  1983.97        2500.00        99.3203       0.679700                 NaN            NaN            NaN            NaN            NaN
  1980.77        2500.00        99.3202       0.679773                 NaN            NaN            NaN            NaN            NaN
  1977.56        2500.00        99.3202       0.679846                 NaN            NaN            NaN            NaN            NaN
  1974.36        2500.00        99.3201       0.679919                 NaN            NaN            NaN            NaN            NaN
  1971.15        2500.00        99.3200       0.679992                 NaN            NaN            NaN            NaN            NaN
  1967.95        2500.00        99.3199       0.680065                 NaN            NaN            NaN            NaN            NaN
  1964.74        2500.00        99.3199       0.680138                 NaN            NaN            NaN            NaN            NaN
  1961.54        2500.00        99.3198       0.680211                 NaN            NaN            NaN            NaN            NaN
  1958.33        2500.00        99.3197       0.680284                 NaN            NaN            NaN            NaN            NaN
  1955.13        2500.00        99.3196       0.680357                 NaN            NaN            NaN            NaN            NaN
  1951.92        2500.00        99.3196       0.680430                 NaN            NaN            NaN            NaN            NaN
  1948.72        2500.00        99.3195       0.680504                 NaN            NaN            NaN            NaN            NaN
  1945.51        2500.00        99.3194       0.680577                 NaN            NaN            NaN            NaN            NaN
  1942.31        2500.00        99.3194       0.680650                 NaN            NaN            NaN            NaN            NaN
  1939.10        2500.00        99.3193       0.680723                 NaN            NaN            NaN            NaN            NaN
  1935.90        2500.00        99.3192       0.680797                 NaN            NaN            NaN            NaN            NaN
  1932.69        2500.00        99.3191       0.680870                 NaN            NaN            NaN            NaN            NaN
  1929.49        2500.00        99.3191       0.680944                 NaN            NaN            NaN            NaN            NaN
  1926.28        2500.00        99.3190       0.681017                 NaN            NaN            NaN            NaN            NaN
  1923.08        2500.00        99.3189       0.681091                 NaN            NaN            NaN            NaN            NaN
  1919.87        2500.00        99.3188       0.681164                 NaN            NaN            NaN            NaN            NaN
  1916.67        2500.00        99.3188       0.681238                 NaN            NaN            NaN            NaN            NaN
  1913.46        2500.00        99.3187       0.681311                 NaN            NaN            NaN            NaN            NaN
  1910.26        2500.00        99.3186       0.681385                 NaN            NaN            NaN            NaN            NaN
  1907.05        2500.00        99.3185       0.681459                 NaN            NaN            NaN            NaN            NaN
  1903.85        2500.00        99.3185       0.681533                 NaN            NaN            NaN            NaN            NaN
  1900.64        2500.00        99.3184       0.681606                 NaN            NaN            NaN            NaN            NaN
  1897.44        2500.00        99.3183       0.681680                 NaN            NaN            NaN            NaN            NaN
  1894.23        2500.00        99.3182       0.681754                 NaN            NaN            NaN            NaN            NaN
  1891.03        2500.00        99.3182       0.681828                 NaN            NaN            NaN            NaN            NaN
  1887.82        2500.00        99.3181       0.681902                 NaN            NaN            NaN            NaN            NaN
  1884.62        2500.00        99.3180       0.681976                 NaN            NaN            NaN            NaN            NaN
  1881.41        2500.00        99.3180       0.682050                 NaN            NaN            NaN            NaN            NaN
  1878.21        2500.00        99.3179       0.682124                 NaN            NaN            NaN            NaN            NaN
  1875.00        2500.00        99.3178       0.682198                 NaN            NaN            NaN            NaN            NaN
  1871.79        2500.00        99.3177       0.682272                 NaN            NaN            NaN            NaN            NaN
  1868.59        2500.00        99.3177       0.682346                 NaN            NaN            NaN            NaN            NaN
  1865.38        2500.00        99.3176       0.682420                 NaN            NaN            NaN            NaN            NaN
  1862.18        2500.00        99.3175       0.682495                 NaN            NaN            NaN            NaN            NaN
  1858.97        2500.00        99.3174       0.682569                 NaN            NaN            NaN            NaN            NaN
  1855.77        2500.00        99.3174       0.682643                 NaN            NaN            NaN            NaN            NaN
  1852.56        2500.00        99.3173       0.682717                 NaN            NaN            NaN            NaN            NaN
  1849.36        2500.00        99.3172       0.682792                 NaN            NaN            NaN            NaN            NaN
  1846.15        2500.00        99.3171       0.682866                 NaN            NaN            NaN            NaN            NaN
  1842.95        2500.00        99.3171       0.682941                 NaN            NaN            NaN            NaN            NaN
  1839.74        2500.00        99.3170       0.683015                 NaN            NaN            NaN            NaN            NaN
  1836.54        2500.00        99.3169       0.683090                 NaN            NaN            NaN            NaN            NaN
  1833.33        2500.00        99.3168       0.683164                 NaN            NaN            NaN            NaN            NaN
  1830.13        2500.00        99.3168       0.683239                 NaN            NaN            NaN            NaN            NaN
  1826.92        2500.00        99.3160       0.683314       0.690663E-003            NaN            NaN            NaN            NaN
  1823.72        2500.00        99.3018       0.683408       0.147647E-001            NaN            NaN            NaN            NaN
  1820.51        2500.00        99.2877       0.683501       0.288427E-001            NaN            NaN            NaN            NaN
  1817.31        2500.00        99.2741       0.683593       0.423124E-001            NaN            NaN            NaN            NaN
  1814.10        2500.00        99.2605       0.683686       0.557859E-001            NaN            NaN            NaN            NaN
  1810.90        2500.00        99.2470       0.683778       0.692630E-001            NaN            NaN            NaN            NaN
  1807.69        2500.00        99.2334       0.683871       0.827439E-001            NaN            NaN            NaN            NaN
  1804.49        2500.00        99.2198       0.683963       0.962286E-001            NaN            NaN            NaN            NaN
  1801.28        2500.00        99.2062       0.684056       0.109717                 NaN            NaN            NaN            NaN
  1798.08        2500.00        99.1926       0.684148       0.123209                 NaN            NaN            NaN            NaN
  1794.87        2500.00        99.1791       0.684241       0.136705                 NaN            NaN            NaN            NaN
  1791.67        2500.00        99.1664       0.684332       0.149272                 NaN            NaN            NaN            NaN
  1788.46        2500.00        99.1537       0.684423       0.161843                 NaN            NaN            NaN            NaN
  1785.26        2500.00        99.1411       0.684514       0.174418                 NaN            NaN            NaN            NaN
  1782.05        2500.00        99.1284       0.684605       0.186995                 NaN            NaN            NaN            NaN
  1778.85        2500.00        99.1157       0.684696       0.199577                 NaN            NaN            NaN            NaN
  1775.64        2500.00        99.1031       0.684787       0.212161                 NaN            NaN            NaN            NaN
  1772.44        2500.00        99.0904       0.684879       0.224749                 NaN            NaN            NaN            NaN
  1769.23        2500.00        99.0777       0.684970       0.237341                 NaN            NaN            NaN            NaN
  1766.03        2500.00        99.0655       0.685060       0.249434                 NaN            NaN            NaN            NaN
  1762.82        2500.00        98.3970       0.685388       0.261275       0.656292                 NaN            NaN            NaN
  1759.62        2500.00        97.6422       0.685745       0.272823        1.39927                 NaN            NaN            NaN
  1756.41        2500.00        96.8865       0.686100       0.284382        2.14299                 NaN            NaN            NaN
  1753.21        2500.00        96.1248       0.686455       0.295630        2.89309                 NaN            NaN            NaN
  1750.00        2500.00        95.3624       0.686809       0.306889        3.64393                 NaN            NaN            NaN
  1746.79        2500.00        94.5992       0.687161       0.318159        4.39550                 NaN            NaN            NaN
  1743.59        2500.00        93.8352       0.687511       0.329439        5.14781                 NaN            NaN            NaN
  1740.38        2500.00        93.0666       0.687861       0.340055        5.90550                 NaN            NaN            NaN
  1737.18        2500.00        92.2972       0.688209       0.350681        6.66392                 NaN            NaN            NaN
  1733.97        2500.00        91.5271       0.688555       0.361316        7.42306                 NaN            NaN            NaN
  1730.77        2500.00        90.7562       0.688899       0.371961        8.18290                 NaN            NaN            NaN
  1727.56        2500.00        89.9847       0.689240       0.382615        8.94345                 NaN            NaN            NaN
  1724.36        2500.00        89.2124       0.689580       0.393278        9.70470                 NaN            NaN            NaN
  1721.15        2500.00        88.4395       0.689917       0.403950        10.4666                 NaN            NaN            NaN
  1717.95        2500.00        87.6659       0.690252       0.414631        11.2292                 NaN            NaN            NaN
  1714.74        2500.00        86.9017       0.690582       0.424425        11.9832                 NaN            NaN            NaN
  1711.54        2500.00        86.1370       0.690910       0.434227        12.7379                 NaN            NaN            NaN
  1708.33        2500.00        85.3715       0.691235       0.444037        13.4932                 NaN            NaN            NaN
  1705.13        2500.00        84.6055       0.691558       0.453854        14.2491                 NaN            NaN            NaN
  1701.92        2500.00        83.8388       0.691879       0.463678        15.0057                 NaN            NaN            NaN
  1698.72        2500.00        83.0714       0.692197       0.473510        15.7629                 NaN            NaN            NaN
  1695.51        2500.00        82.3035       0.692513       0.483350        16.5206                 NaN            NaN            NaN
  1692.31        2500.00        81.5349       0.692826       0.493196        17.2790                 NaN            NaN            NaN
  1689.10        2500.00        80.7889       0.693129       0.502412        18.0155                 NaN            NaN            NaN
  1685.90        2500.00        80.0424       0.693430       0.511635        18.7526                 NaN            NaN            NaN
  1682.69        2500.00        79.2953       0.693728       0.520864        19.4902                 NaN            NaN            NaN
  1679.49        2500.00        78.5476       0.694023       0.530099        20.2283                 NaN            NaN            NaN
  1676.28        2500.00        77.8161       0.694310       0.538976        20.9506                 NaN            NaN            NaN
  1673.08        2500.00        77.0842       0.694595       0.547859        21.6734                 NaN            NaN            NaN
  1669.87        2500.00        76.3702       0.694863       0.556817        22.3781                 NaN            NaN            NaN
  1666.67        2500.00        74.3754       0.696354       0.564713        22.7476        1.61597                 NaN            NaN
  1663.46        2500.00        72.5462       0.697781       0.569707        22.9780        3.20834                 NaN            NaN
  1660.26        2500.00        70.7097       0.699211       0.574720        23.2092        4.80718                 NaN            NaN
  1657.05        2500.00        68.8658       0.700645       0.579751        23.4413        6.41252                 NaN            NaN
  1653.85        2500.00        67.0144       0.702083       0.584802        23.6743        8.02438                 NaN            NaN
  1650.64        2500.00        65.1556       0.703525       0.589871        23.9082        9.64278                 NaN            NaN
  1647.44        2500.00        63.2893       0.704970       0.594960        24.1430        11.2678                 NaN            NaN
  1644.23        2500.00        61.4156       0.706420       0.600067        24.3786        12.8993                 NaN            NaN
  1641.03        2500.00        59.5342       0.707872       0.605194        24.6151        14.5375                 NaN            NaN
  1637.82        2500.00        58.1444       0.708983       0.606074        24.7683        15.7723                 NaN            NaN
  1634.62        2500.00        56.7502       0.710097       0.606956        24.9219        17.0108                 NaN            NaN
  1631.41        2500.00        55.3519       0.711212       0.607839        25.0759        18.2532                 NaN            NaN
  1628.21        2500.00        53.9493       0.712329       0.608724        25.2303        19.4994                 NaN            NaN
  1625.00        2500.00        52.5424       0.713448       0.609610        25.3852        20.7494                 NaN            NaN
  1621.79        2500.00        51.1313       0.714569       0.610497        25.5404        22.0032                 NaN            NaN
  1618.59        2500.00        49.7158       0.715691       0.611386        25.6962        23.2609                 NaN            NaN
  1615.38        2500.00        48.2961       0.716816       0.612277        25.8523        24.5225                 NaN            NaN
  1612.18        2500.00        47.1498       0.717755       0.609351        25.9623        25.5609                 NaN            NaN
  1608.97        2500.00        46.0005       0.718696       0.606416        26.0725        26.6019                 NaN            NaN
  1605.77        2500.00        44.8484       0.719638       0.603472        26.1830        27.6455                 NaN            NaN
  1602.56        2500.00        43.6934       0.720581       0.600520        26.2937        28.6918                 NaN            NaN
  1599.36        2500.00        42.5355       0.721525       0.597559        26.4047        29.7407                 NaN            NaN
  1596.15        2500.00        41.3747       0.722471       0.594590        26.5159        30.7923                 NaN            NaN
  1592.95        2500.00        40.2111       0.723418       0.591611        26.6273        31.8466                 NaN            NaN
  1589.74        2500.00        39.0445       0.724366       0.588624        26.7390        32.9035                 NaN            NaN
  1586.54        2500.00        37.9997       0.725238       0.580411        26.8344        33.8603                 NaN            NaN
  1583.33        2500.00        36.9527       0.726112       0.572178        26.9299        34.8192                 NaN            NaN
  1580.13        2500.00        35.9032       0.726986       0.563924        27.0256        35.7803                 NaN            NaN
  1576.92        2500.00        34.8513       0.727862       0.555649        27.1215        36.7437                 NaN            NaN
  1573.72        2500.00        33.7971       0.728739       0.547354        27.2176        37.7092                 NaN            NaN
  1570.51        2500.00        32.7405       0.729617       0.539038        27.3139        38.6770                 NaN            NaN
  1567.31        2500.00        31.6814       0.730496       0.530702        27.4104        39.6470                 NaN            NaN
  1564.10        2500.00        30.6200       0.731376       0.522344        27.5070        40.6192                 NaN            NaN
  1560.90        2500.00        29.4159       0.732384       0.518058        27.6083        40.6608        1.06452                 NaN
  1557.69        2500.00        28.0646       0.733523       0.520061        27.7160        39.9714        2.99439                 NaN
  1554.49        2500.00        26.6784       0.734705       0.519812        27.8366        39.4295        4.80089                 NaN
  1551.28        2500.00        25.2880       0.735890       0.519562        27.9575        38.8858        6.61317                 NaN
  1548.08        2500.00        23.9075       0.737084       0.517098        28.0824        38.5174        8.23853                 NaN
  1544.87        2500.00        22.4034       0.738415       0.501661        28.2537        39.0232        8.18468       0.894949     
  1541.67        2500.00        22.4022       0.738437       0.501679        28.2542        39.0238        8.18482       0.894963     
  1538.46        2500.00        19.5621       0.740967       0.459079        28.5927        40.7203        3.67139        6.25350     
