|6.6.6
Archiving\03_Data\DeqfracLP/QFM_m2.25/YM20/YM20_6.tab                   
           1
T(K)    
  0.000000000000000E+000
  0.000000000000000E+000
           0
           3
T(K)           P(bar)         rho,kg/m3     
  1583.33        500.000        3223.27     
  1581.87        500.000        3220.24     
  1580.41        500.000        3225.08     
  1578.94        500.000        3221.41     
  1577.48        500.000        3222.70     
  1576.02        500.000        3225.95     
  1574.56        500.000        3226.22     
  1573.10        500.000        3226.59     
  1571.63        500.000        3226.86     
  1570.17        500.000        3227.65     
  1568.71        500.000        3227.34     
  1567.25        500.000        3228.02     
  1565.79        500.000        3228.52     
  1564.32        500.000        3227.66     
  1562.86        500.000        3228.91     
  1561.40        500.000        3229.40     
  1559.94        500.000        3229.39     
  1558.48        500.000        3229.65     
  1557.01        500.000        3230.09     
  1555.55        500.000        3230.66     
  1554.09        500.000        3230.58     
  1552.63        500.000        3231.58     
  1551.17        500.000        3231.60     
  1549.70        500.000        3232.03     
  1548.24        500.000        3232.37     
  1546.78        500.000        3233.04     
  1545.32        500.000        3233.25     
  1543.86        500.000        3233.31     
  1542.39        500.000        3234.39     
  1540.93        500.000        3233.93     
  1539.47        500.000        3234.62     
  1538.01        500.000        3235.02     
  1536.55        500.000        3235.33     
  1535.08        500.000        3235.80     
  1533.62        500.000        3235.40     
  1532.16        500.000        3234.99     
  1530.70        500.000        3236.52     
  1529.24        500.000        3236.80     
  1527.77        500.000        3236.84     
  1526.31        500.000        3236.89     
  1524.85        500.000        3238.11     
  1523.39        500.000        3238.53     
  1521.93        500.000        3238.03     
  1520.46        500.000        3240.05     
  1519.00        500.000        3239.22     
  1517.54        500.000        3241.89     
  1516.08        500.000        3242.38     
  1514.62        500.000        3239.30     
  1513.15        500.000        3240.82     
  1511.69        500.000        3240.24     
  1510.23        500.000        3240.74     
  1508.77        500.000        3241.16     
  1507.31        500.000        3245.62     
  1505.85        500.000        3242.45     
  1504.38        500.000        3242.65     
  1502.92        500.000        3242.80     
  1501.46        500.000        3244.02     
  1500.00        500.000        3244.19     
  1498.54        500.000        3244.85     
  1497.07        500.000        3245.65     
  1495.61        500.000        3244.75     
  1494.15        500.000        3245.76     
  1492.69        500.000        3246.65     
  1491.23        500.000        3246.59     
  1489.76        500.000        3247.51     
  1488.30        500.000        3241.06     
  1486.84        500.000        3237.04     
  1485.38        500.000        3237.49     
  1483.92        500.000        3238.56     
  1482.45        500.000        3239.26     
  1480.99        500.000        3240.45     
  1479.53        500.000        3241.05     
  1478.07        500.000        3241.47     
  1476.61        500.000        3242.75     
  1475.14        500.000        3227.81     
  1473.68        500.000        3236.62     
  1472.22        500.000        3233.91     
  1470.76        500.000        3234.86     
  1469.30        500.000        3235.84     
  1467.83        500.000        3237.16     
  1466.37        500.000        3238.10     
  1464.91        500.000        3239.33     
  1463.45        500.000        3240.53     
  1461.99        500.000        3241.65     
  1460.52        500.000        3242.75     
  1459.06        500.000        3243.86     
  1457.60        500.000        3244.92     
  1456.14        500.000        3246.12     
  1454.68        500.000        3246.96     
  1453.21        500.000        3248.45     
  1451.75        500.000        3249.40     
  1450.29        500.000        3250.42     
  1448.83        500.000        3252.19     
  1447.37        500.000        3206.40     
  1445.90        500.000        3082.82     
  1444.44        500.000        3084.31     
  1442.98        500.000        3085.93     
  1441.52        500.000        3087.55     
  1440.06        500.000        3089.03     
  1438.59        500.000        3090.57     
  1437.13        500.000        3092.21     
  1435.67        500.000        3093.72     
  1434.21        500.000        3095.33     
  1432.75        500.000        3096.75     
  1431.28        500.000        3098.32     
  1429.82        500.000        3099.76     
  1428.36        500.000        3101.40     
  1426.90        500.000        3102.79     
  1425.44        500.000        3104.47     
  1423.97        500.000        3105.78     
  1422.51        500.000        3107.43     
  1421.05        500.000        3109.21     
  1419.59        500.000        3110.49     
  1418.13        500.000        3111.95     
  1416.66        500.000        3113.48     
  1415.20        500.000        3114.99     
  1413.74        500.000        3116.50     
  1412.28        500.000        3117.90     
  1410.82        500.000        3119.58     
  1409.35        500.000        3120.98     
  1407.89        500.000        3122.54     
  1406.43        500.000        3123.89     
  1404.97        500.000        3125.70     
  1403.51        500.000        3127.19     
  1402.04        500.000        3128.48     
  1400.58        500.000        3130.13     
  1399.12        500.000        3131.62     
  1397.66        500.000        3133.57     
  1396.20        500.000        3134.79     
  1394.73        500.000        3136.11     
  1393.27        500.000        3137.52     
  1391.81        500.000        3139.07     
  1390.35        500.000        3140.66     
  1388.89        500.000        3142.05     
  1387.42        500.000        3143.67     
  1385.96        500.000        3156.56     
  1384.50        500.000        3159.92     
  1383.04        500.000        3161.59     
  1381.58        500.000        3162.74     
  1380.11        500.000        3165.96     
  1378.65        500.000        3167.65     
  1377.19        500.000        3169.58     
  1375.73        500.000        3171.57     
  1374.27        500.000        3173.38     
  1372.80        500.000        3175.75     
  1371.34        500.000        3177.62     
  1369.88        500.000        3179.60     
  1368.42        500.000        3181.71     
  1366.96        500.000        3183.63     
  1365.49        500.000        3185.50     
  1364.03        500.000        3187.84     
  1362.57        500.000        3189.81     
  1361.11        500.000        3191.77     
  1359.65        500.000        3194.29     
  1358.19        500.000        3195.85     
  1356.72        500.000        3198.21     
  1355.26        500.000        3199.94     
  1353.80        500.000        3202.02     
  1352.34        500.000        3203.97     
  1350.88        500.000        3206.19     
  1349.41        500.000        3208.09     
  1347.95        500.000        3210.01     
  1346.49        500.000        3212.13     
  1345.03        500.000        3214.06     
  1343.57        500.000        3216.07     
  1342.10        500.000        3218.09     
  1340.64        500.000        3220.15     
  1339.18        500.000        3221.96     
  1337.72        500.000        3223.91     
  1336.26        500.000        3225.90     
  1334.79        500.000        3227.68     
  1333.33        500.000        3229.60     
  1331.87        500.000        3231.67     
  1330.41        500.000        3233.40     
  1328.95        500.000        3235.14     
  1327.48        500.000        3237.02     
  1326.02        500.000        3238.85     
  1324.56        500.000        3240.49     
  1323.10        500.000        3242.23     
  1321.64        500.000        3244.04     
  1320.17        500.000        3245.65     
  1318.71        500.000        3247.33     
  1317.25        500.000        3248.89     
  1315.79        500.000        3250.49     
  1314.33        500.000        3252.05     
  1312.86        500.000        3253.47     
  1311.40        500.000        3255.04     
  1309.94        500.000        3256.42     
  1308.48        500.000        3257.83     
  1307.02        500.000        3259.18     
  1305.55        500.000        3260.35     
  1304.09        500.000        3261.67     
  1302.63        500.000        3263.12     
  1301.17        500.000        3263.97     
  1299.71        500.000        3265.28     
  1298.24        500.000        3273.35     
  1296.78        500.000        2712.42     
  1295.32        500.000        3267.36     
  1293.86        500.000        3257.83     
  1292.40        500.000        3269.75     
  1290.93        500.000        3270.64     
  1289.47        500.000        3271.63     
  1288.01        500.000        3272.30     
  1286.55        500.000        3272.91     
  1285.09        500.000        3273.51     
  1283.62        500.000        3274.18     
  1282.16        500.000        3274.65     
  1280.70        500.000        3274.82     
  1279.24        500.000        2797.11     
  1277.78        500.000        2797.70     
  1276.31        500.000        2801.03     
  1274.85        500.000        2804.16     
  1273.39        500.000        2807.33     
  1271.93        500.000        2810.38     
  1270.47        500.000        2813.40     
  1269.00        500.000        2816.11     
  1267.54        500.000        2819.25     
  1266.08        500.000        2822.00     
  1264.62        500.000        2824.74     
  1263.16        500.000        2826.90     
  1261.69        500.000        2829.59     
  1260.23        500.000        2841.82     
  1258.77        500.000        2845.78     
  1257.31        500.000        2847.34     
  1255.85        500.000        2848.92     
  1254.38        500.000        2850.27     
  1252.92        500.000        2851.33     
  1251.46        500.000        2852.83     
  1250.00        500.000        2853.72     
  1248.54        500.000        2855.00     
  1247.07        500.000        2856.11     
  1245.61        500.000        2856.98     
  1244.15        500.000        2857.99     
  1242.69        500.000        2858.81     
  1241.23        500.000        2859.48     
  1239.76        500.000        2860.57     
  1238.30        500.000        2861.65     
  1236.84        500.000        2861.60     
  1235.38        500.000        2862.24     
  1233.92        500.000        2831.44     
  1232.45        500.000        2837.91     
  1230.99        500.000        3135.50     
  1229.53        500.000        2854.21     
  1228.07        500.000        2895.95     
  1226.61        500.000        2832.94     
  1225.14        500.000        2823.35     
  1223.68        500.000        2458.47     
  1222.22        500.000        4249.42     
  1220.76        500.000        2570.97     
  1219.30        500.000        2458.91     
  1217.84        500.000        3530.61     
  1216.37        500.000        2995.73     
  1214.91        500.000        2766.52     
  1213.45        500.000        3503.82     
  1211.99        500.000        2784.25     
  1210.53        500.000        2724.26     
  1209.06        500.000        3581.87     
  1207.60        500.000        3528.30     
  1206.14        500.000        2703.49     
  1204.68        500.000        2682.08     
  1203.22        500.000        2674.64     
  1201.75        500.000        2777.06     
  1200.29        500.000        2588.91     
  1198.83        500.000        2422.64     
  1197.37        500.000        2422.73     
  1195.91        500.000        2671.32     
  1194.44        500.000        2649.15     
  1192.98        500.000        2761.97     
  1191.52        500.000        2651.72     
  1190.06        500.000        2652.13     
  1188.60        500.000        2636.03     
  1187.13        500.000        2630.44     
  1185.67        500.000        2630.50     
  1184.21        500.000        2630.56     
  1182.75        500.000        2630.63     
  1181.29        500.000        2630.69     
  1179.82        500.000        2630.76     
  1178.36        500.000        2630.82     
  1176.90        500.000        2630.88     
  1175.44        500.000        2630.95     
  1173.98        500.000        2631.01     
  1172.51        500.000        2631.07     
  1171.05        500.000        2631.14     
  1169.59        500.000        2631.20     
  1168.13        500.000        2631.27     
  1166.67        500.000        2631.33     
  1165.20        500.000        2631.39     
  1163.74        500.000        2631.46     
  1162.28        500.000        2631.52     
  1160.82        500.000        2631.58     
  1159.36        500.000        2631.65     
  1157.89        500.000        2631.71     
  1156.43        500.000        2631.77     
  1154.97        500.000        2633.96     
  1153.51        500.000        2634.00     
  1152.05        500.000        2631.96     
  1150.58        500.000        2632.03     
  1149.12        500.000        2632.09     
  1147.66        500.000        2632.15     
  1146.20        500.000        2632.22     
  1144.74        500.000        2632.28     
  1143.27        500.000        2632.34     
  1141.81        500.000        2632.41     
  1140.35        500.000        2632.47     
  1138.89        500.000        2634.78     
  1137.43        500.000        2632.60     
  1135.96        500.000        2632.66     
  1134.50        500.000        2632.72     
  1133.04        500.000        2632.79     
  1131.58        500.000        2632.85     
  1130.12        500.000        2632.91     
  1128.65        500.000        2632.98     
  1127.19        500.000        2633.04     
  1125.73        500.000        2633.10     
  1124.27        500.000        2633.17     
  1122.81        500.000        2633.23     
  1121.34        500.000        2633.29     
  1119.88        500.000        2633.35     
  1118.42        500.000        2633.42     
  1116.96        500.000        2633.48     
  1115.50        500.000        2633.54     
  1114.03        500.000        2633.61     
  1112.57        500.000        2633.67     
  1111.11        500.000        2633.73     
  1109.65        500.000        2633.79     
  1108.19        500.000        2633.86     
  1106.72        500.000        2633.92     
  1105.26        500.000        2633.98     
  1103.80        500.000        2634.05     
  1102.34        500.000        2634.11     
  1100.88        500.000        2634.17     
  1099.41        500.000        2634.23     
  1097.95        500.000        2635.88     
  1096.49        500.000        2634.36     
  1095.03        500.000        2634.42     
  1093.57        500.000        2636.13     
  1092.10        500.000        2636.30     
  1090.64        500.000        2636.33     
  1089.18        500.000        2636.39     
  1087.72        500.000        2636.44     
  1086.26        500.000        2636.13     
  1084.79        500.000        2636.13     
  1083.33        500.000        2634.92     
  1081.87        500.000        2634.99     
  1080.41        500.000        2635.05     
  1078.95        500.000        2635.11     
  1077.48        500.000        2635.17     
  1076.02        500.000        2635.24     
  1074.56        500.000        2635.30     
  1073.10        500.000        2635.36     
  1071.64        500.000        2635.42     
  1070.18        500.000        2635.49     
  1068.71        500.000        2635.55     
  1067.25        500.000        2635.61     
  1065.79        500.000        2635.67     
  1064.33        500.000        2635.74     
  1062.87        500.000        2635.80     
  1061.40        500.000        2635.86     
  1059.94        500.000        2635.92     
  1058.48        500.000        2635.98     
  1057.02        500.000        2636.05     
  1055.56        500.000        2636.11     
  1054.09        500.000        2636.17     
  1052.63        500.000        2636.23     
  1051.17        500.000        2636.30     
  1049.71        500.000        2636.36     
  1048.25        500.000        2636.42     
  1046.78        500.000        2636.48     
  1045.32        500.000        2636.54     
  1043.86        500.000        2637.54     
  1042.40        500.000        2637.60     
  1040.94        500.000        2637.64     
  1039.47        500.000        2637.69     
  1038.01        500.000        2637.75     
  1036.55        500.000        2636.92     
  1035.09        500.000        2636.98     
  1033.63        500.000        2637.90     
  1032.16        500.000        2637.95     
  1030.70        500.000        2637.16     
  1029.24        500.000        2638.05     
  1027.78        500.000        2638.11     
  1026.32        500.000        2637.35     
  1024.85        500.000        2637.41     
  1023.39        500.000        2637.47     
  1021.93        500.000        2637.53     
  1020.47        500.000        2637.60     
  1019.01        500.000        2637.66     
  1017.54        500.000        2637.72     
  1016.08        500.000        2637.78     
  1014.62        500.000        2637.84     
  1013.16        500.000        2637.91     
  1011.70        500.000        2637.97     
  1010.23        500.000        2638.03     
  1008.77        500.000        2638.09     
  1007.31        500.000        2638.15     
  1005.85        500.000        2638.21     
  1004.39        500.000        2638.27     
  1002.92        500.000        2638.34     
  1001.46        500.000        2638.40     
  1000.00        500.000        2638.46     
