|6.6.6
Archiving\03_Data\frac/QFM_m1/NWA1068/NWA1068_6.tab                       
           1
T(K)    
  0.000000000000000E+000
  0.000000000000000E+000
           0
           3
T(K)           P(bar)         rho,kg/m3     
  2000.00        2500.00        3681.23     
  1997.49        2500.00        3681.62     
  1994.99        2500.00        3682.00     
  1992.48        2500.00        3682.39     
  1989.97        2500.00        3682.78     
  1987.47        2500.00        3683.16     
  1984.96        2500.00        3683.55     
  1982.46        2500.00        3683.93     
  1979.95        2500.00        3684.32     
  1977.44        2500.00        3684.70     
  1974.94        2500.00        3685.09     
  1972.43        2500.00        3685.47     
  1969.92        2500.00        3685.86     
  1967.42        2500.00        3686.24     
  1964.91        2500.00        3686.63     
  1962.41        2500.00        3687.01     
  1959.90        2500.00        3687.39     
  1957.39        2500.00        3687.78     
  1954.89        2500.00        3688.16     
  1952.38        2500.00        3688.55     
  1949.87        2500.00        3688.93     
  1947.37        2500.00        3689.31     
  1944.86        2500.00        3689.70     
  1942.36        2500.00        3690.08     
  1939.85        2500.00        3690.46     
  1937.34        2500.00        3690.85     
  1934.84        2500.00        3691.23     
  1932.33        2500.00        3691.61     
  1929.82        2500.00        3691.99     
  1927.32        2500.00        3692.38     
  1924.81        2500.00        3692.76     
  1922.31        2500.00        3693.14     
  1919.80        2500.00        3693.52     
  1917.29        2500.00        3693.90     
  1914.79        2500.00        3694.29     
  1912.28        2500.00        3694.67     
  1909.77        2500.00        3695.05     
  1907.27        2500.00        3695.43     
  1904.76        2500.00        3695.81     
  1902.26        2500.00        3696.19     
  1899.75        2500.00        3696.57     
  1897.24        2500.00        3696.95     
  1894.74        2500.00        3697.34     
  1892.23        2500.00        3697.72     
  1889.72        2500.00        3698.10     
  1887.22        2500.00        3698.48     
  1884.71        2500.00        3698.86     
  1882.21        2500.00        3699.24     
  1879.70        2500.00        3699.62     
  1877.19        2500.00        3700.00     
  1874.69        2500.00        3700.38     
  1872.18        2500.00        3700.76     
  1869.67        2500.00        3701.13     
  1867.17        2500.00        3701.51     
  1864.66        2500.00        3701.89     
  1862.16        2500.00        3702.27     
  1859.65        2500.00        3702.65     
  1857.14        2500.00        3703.03     
  1854.64        2500.00        3703.41     
  1852.13        2500.00        3703.79     
  1849.62        2500.00        3704.16     
  1847.12        2500.00        3704.54     
  1844.61        2500.00        3704.92     
  1842.11        2500.00        3705.30     
  1839.60        2500.00        3705.68     
  1837.09        2500.00        3706.05     
  1834.59        2500.00        3706.43     
  1832.08        2500.00        3706.81     
  1829.57        2500.00        3707.19     
  1827.07        2500.00        3707.56     
  1824.56        2500.00        3707.94     
  1822.06        2500.00        3708.32     
  1819.55        2500.00        3708.69     
  1817.04        2500.00        3709.07     
  1814.54        2500.00        3709.45     
  1812.03        2500.00        3709.82     
  1809.52        2500.00        3710.20     
  1807.02        2500.00        3710.58     
  1804.51        2500.00        3710.95     
  1802.01        2500.00        3711.33     
  1799.50        2500.00        3711.70     
  1796.99        2500.00        3712.08     
  1794.49        2500.00        3712.45     
  1791.98        2500.00        3712.83     
  1789.47        2500.00        3713.20     
  1786.97        2500.00        3713.58     
  1784.46        2500.00        3713.95     
  1781.95        2500.00        3714.33     
  1779.45        2500.00        3714.70     
  1776.94        2500.00        3715.08     
  1774.44        2500.00        3715.45     
  1771.93        2500.00        3715.83     
  1769.42        2500.00        3716.20     
  1766.92        2500.00        3716.57     
  1764.41        2500.00        3716.95     
  1761.90        2500.00        3717.32     
  1759.40        2500.00        3717.70     
  1756.89        2500.00        3718.07     
  1754.39        2500.00        3718.44     
  1751.88        2500.00        3718.82     
  1749.37        2500.00        3719.19     
  1746.87        2500.00        3719.56     
  1744.36        2500.00        3719.93     
  1741.85        2500.00        3720.31     
  1739.35        2500.00        3720.68     
  1736.84        2500.00        3721.05     
  1734.34        2500.00        3721.42     
  1731.83        2500.00        3721.80     
  1729.32        2500.00        3722.17     
  1726.82        2500.00        3722.54     
  1724.31        2500.00        3591.36     
  1721.80        2500.00        2951.17     
  1719.30        2500.00        2951.71     
  1716.79        2500.00        2952.25     
  1714.29        2500.00        2952.78     
  1711.78        2500.00        2953.32     
  1709.27        2500.00        2953.86     
  1706.77        2500.00        2954.40     
  1704.26        2500.00        2954.94     
  1701.75        2500.00        4508.12     
  1699.25        2500.00        4507.41     
  1696.74        2500.00        4507.78     
  1694.24        2500.00        4507.86     
  1691.73        2500.00        4508.18     
  1689.22        2500.00        4508.71     
  1686.72        2500.00        4508.77     
  1684.21        2500.00        4508.95     
  1681.70        2500.00        4509.64     
  1679.20        2500.00        4511.02     
  1676.69        2500.00        4510.36     
  1674.19        2500.00        4510.76     
  1671.68        2500.00        4511.14     
  1669.17        2500.00        4511.06     
  1666.67        2500.00        4510.39     
  1664.16        2500.00        4510.73     
  1661.65        2500.00        4511.21     
  1659.15        2500.00        4511.29     
  1656.64        2500.00        4511.79     
  1654.14        2500.00        4512.41     
  1651.63        2500.00        4513.39     
  1649.12        2500.00        4512.94     
  1646.62        2500.00        4513.14     
  1644.11        2500.00        4517.32     
  1641.60        2500.00        3398.69     
  1639.10        2500.00        3395.77     
  1636.59        2500.00        3398.96     
  1634.09        2500.00        3401.40     
  1631.58        2500.00        3403.51     
  1629.07        2500.00        3406.29     
  1626.57        2500.00        3408.00     
  1624.06        2500.00        3410.41     
  1621.55        2500.00        3412.97     
  1619.05        2500.00        3414.28     
  1616.54        2500.00        3417.05     
  1614.04        2500.00        3419.04     
  1611.53        2500.00        3422.14     
  1609.02        2500.00        3423.44     
  1606.52        2500.00        3425.63     
  1604.01        2500.00        3427.58     
  1601.50        2500.00        3429.91     
  1599.00        2500.00        3432.39     
  1596.49        2500.00        3434.19     
  1593.98        2500.00        3436.88     
  1591.48        2500.00        3438.75     
  1588.97        2500.00        3441.27     
  1586.47        2500.00        3443.27     
  1583.96        2500.00        3445.99     
  1581.45        2500.00        3453.56     
  1578.95        2500.00        3448.25     
  1576.44        2500.00        3452.33     
  1573.93        2500.00        3456.00     
  1571.43        2500.00        3456.83     
  1568.92        2500.00        3459.21     
  1566.42        2500.00        3461.29     
  1563.91        2500.00        3461.42     
  1561.40        2500.00        3465.56     
  1558.90        2500.00        3465.15     
  1556.39        2500.00        3468.05     
  1553.88        2500.00        3472.85     
  1551.38        2500.00        3474.72     
  1548.87        2500.00        3476.75     
  1546.37        2500.00        3477.15     
  1543.86        2500.00        3481.26     
  1541.35        2500.00        3484.60     
  1538.85        2500.00        3485.96     
  1536.34        2500.00        3488.51     
  1533.83        2500.00        3490.75     
  1531.33        2500.00        3492.82     
  1528.82        2500.00        3495.19     
  1526.32        2500.00        3497.99     
  1523.81        2500.00        3498.62     
  1521.30        2500.00        3500.96     
  1518.80        2500.00        3504.00     
  1516.29        2500.00        3437.43     
  1513.78        2500.00        3337.59     
  1511.28        2500.00        3337.44     
  1508.77        2500.00        3338.80     
  1506.27        2500.00        3339.57     
  1503.76        2500.00        3311.00     
  1501.25        2500.00        3302.83     
  1498.75        2500.00        3304.54     
  1496.24        2500.00        3313.34     
  1493.73        2500.00        3314.43     
  1491.23        2500.00        3316.06     
  1488.72        2500.00        3316.31     
  1486.22        2500.00        3305.24     
  1483.71        2500.00        3296.51     
  1481.20        2500.00        3298.57     
  1478.70        2500.00        3300.90     
  1476.19        2500.00        3303.02     
  1473.68        2500.00        3320.23     
  1471.18        2500.00        3325.83     
  1468.67        2500.00        3328.20     
  1466.17        2500.00        3330.13     
  1463.66        2500.00        3332.37     
  1461.15        2500.00        3334.30     
  1458.65        2500.00        3336.68     
  1456.14        2500.00        3339.03     
  1453.63        2500.00        3341.19     
  1451.13        2500.00        3342.93     
  1448.62        2500.00        3345.23     
  1446.12        2500.00        3347.23     
  1443.61        2500.00        3349.55     
  1441.10        2500.00        3355.83     
  1438.60        2500.00        3348.85     
  1436.09        2500.00        3356.02     
  1433.58        2500.00        3355.99     
  1431.08        2500.00        3362.20     
  1428.57        2500.00        3362.82     
  1426.07        2500.00        3365.05     
  1423.56        2500.00        3367.29     
  1421.05        2500.00        3369.56     
  1418.55        2500.00        3379.87     
  1416.04        2500.00        2880.81     
  1413.53        2500.00        3391.81     
  1411.03        2500.00        3365.87     
  1408.52        2500.00        3378.03     
  1406.02        2500.00        3383.01     
  1403.51        2500.00        3385.89     
  1401.00        2500.00        3386.12     
  1398.50        2500.00        3390.18     
  1395.99        2500.00        3234.22     
  1393.48        2500.00        3215.88     
  1390.98        2500.00        3220.71     
  1388.47        2500.00        3225.04     
  1385.96        2500.00        3229.25     
  1383.46        2500.00        3233.45     
  1380.95        2500.00        3237.60     
  1378.45        2500.00        3242.08     
  1375.94        2500.00        3246.51     
  1373.43        2500.00        3250.56     
  1370.93        2500.00        3254.58     
  1368.42        2500.00        3259.58     
  1365.91        2500.00        3262.99     
  1363.41        2500.00        3266.87     
  1360.90        2500.00        3270.89     
  1358.40        2500.00        3274.90     
  1355.89        2500.00        3278.48     
  1353.38        2500.00        3282.80     
  1350.88        2500.00        3285.94     
  1348.37        2500.00        3289.69     
  1345.86        2500.00        3293.00     
  1343.36        2500.00        3296.45     
  1340.85        2500.00        3299.67     
  1338.35        2500.00        3302.72     
  1335.84        2500.00        3346.47     
  1333.33        2500.00        3366.78     
  1330.83        2500.00        3369.15     
  1328.32        2500.00        3371.88     
  1325.81        2500.00        3372.26     
  1323.31        2500.00        3373.38     
  1320.80        2500.00        3374.12     
  1318.30        2500.00        3374.59     
  1315.79        2500.00        3374.85     
  1313.28        2500.00        3374.99     
  1310.78        2500.00        3374.86     
  1308.27        2500.00        3374.68     
  1305.76        2500.00        3374.24     
  1303.26        2500.00        3373.68     
  1300.75        2500.00        3372.91     
  1298.25        2500.00        3372.04     
  1295.74        2500.00        3370.94     
  1293.23        2500.00        3369.73     
  1290.73        2500.00        3368.33     
  1288.22        2500.00        2875.66     
  1285.71        2500.00        2877.61     
  1283.21        2500.00        2879.25     
  1280.70        2500.00        2880.47     
  1278.20        2500.00        2881.18     
  1275.69        2500.00        2882.04     
  1273.18        2500.00        2882.31     
  1270.68        2500.00        2881.73     
  1268.17        2500.00        2881.23     
  1265.66        2500.00        2888.67     
  1263.16        2500.00        2904.20     
  1260.65        2500.00        2857.50     
  1258.15        2500.00        2866.22     
  1255.64        2500.00        2824.08     
  1253.13        2500.00        2910.53     
  1250.63        2500.00        2867.12     
  1248.12        2500.00        2834.20     
  1245.61        2500.00        3010.88     
  1243.11        2500.00        2797.48     
  1240.60        2500.00        2847.66     
  1238.10        2500.00        2875.45     
  1235.59        2500.00        2865.64     
  1233.08        2500.00        2869.93     
  1230.58        2500.00        2860.56     
  1228.07        2500.00        2798.56     
  1225.56        2500.00        2786.51     
  1223.06        2500.00        2692.11     
  1220.55        2500.00        2692.24     
  1218.05        2500.00        2692.06     
  1215.54        2500.00        2692.19     
  1213.03        2500.00        2692.32     
  1210.53        2500.00        2692.45     
  1208.02        2500.00        2692.58     
  1205.51        2500.00        2692.70     
  1203.01        2500.00        2692.83     
  1200.50        2500.00        2692.96     
  1197.99        2500.00        2693.05     
  1195.49        2500.00        2693.18     
  1192.98        2500.00        2693.56     
  1190.48        2500.00        2693.66     
  1187.97        2500.00        2693.84     
  1185.46        2500.00        2693.69     
  1182.96        2500.00        2694.09     
  1180.45        2500.00        2694.21     
  1177.94        2500.00        2694.34     
  1175.44        2500.00        2694.48     
  1172.93        2500.00        2694.59     
  1170.43        2500.00        2694.46     
  1167.92        2500.00        2694.59     
  1165.41        2500.00        2694.73     
  1162.91        2500.00        2694.85     
  1160.40        2500.00        2694.98     
  1157.89        2500.00        2695.10     
  1155.39        2500.00        2695.44     
  1152.88        2500.00        2695.36     
  1150.38        2500.00        2695.46     
  1147.87        2500.00        2695.59     
  1145.36        2500.00        2695.74     
  1142.86        2500.00        2696.07     
  1140.35        2500.00        2696.18     
  1137.84        2500.00        2696.12     
  1135.34        2500.00        2696.26     
  1132.83        2500.00        2696.54     
  1130.33        2500.00        2696.51     
  1127.82        2500.00        2696.78     
  1125.31        2500.00        2696.90     
  1122.81        2500.00        2697.02     
  1120.30        2500.00        2697.11     
  1117.79        2500.00        2697.23     
  1115.29        2500.00        2697.36     
  1112.78        2500.00        2697.49     
  1110.28        2500.00        2697.61     
  1107.77        2500.00        2697.74     
  1105.26        2500.00        2697.87     
  1102.76        2500.00        2697.99     
  1100.25        2500.00        2698.12     
  1097.74        2500.00        2698.25     
  1095.24        2500.00        2698.31     
  1092.73        2500.00        2698.43     
  1090.23        2500.00        2698.55     
  1087.72        2500.00        2698.67     
  1085.21        2500.00        2698.78     
  1082.71        2500.00        2698.90     
  1080.20        2500.00        2699.02     
  1077.69        2500.00        2699.14     
  1075.19        2500.00        2699.26     
  1072.68        2500.00        2699.38     
  1070.18        2500.00        2699.49     
  1067.67        2500.00        2699.61     
  1065.16        2500.00        2699.73     
  1062.66        2500.00        2699.85     
  1060.15        2500.00        2699.97     
  1057.64        2500.00        2700.08     
  1055.14        2500.00        2700.20     
  1052.63        2500.00        2700.32     
  1050.13        2500.00        2700.44     
  1047.62        2500.00        2700.51     
  1045.11        2500.00        2700.67     
  1042.61        2500.00        2700.79     
  1040.10        2500.00        2700.91     
  1037.59        2500.00        2701.02     
  1035.09        2500.00        2701.14     
  1032.58        2500.00        2701.27     
  1030.08        2500.00        2701.37     
  1027.57        2500.00        2701.49     
  1025.06        2500.00        2701.59     
  1022.56        2500.00        2701.74     
  1020.05        2500.00        2701.83     
  1017.54        2500.00        2701.99     
  1015.04        2500.00        2702.03     
  1012.53        2500.00        2702.21     
  1010.03        2500.00        2702.27     
  1007.52        2500.00        2702.48     
  1005.01        2500.00        2702.58     
  1002.51        2500.00        2702.70     
  1000.00        2500.00        2702.81     
