|6.6.6
Archiving\03_Data\eqLP/QFM_m4.5/ALH/ALH_6.tab                             
           1
T(K)    
  0.000000000000000E+000
  0.000000000000000E+000
           0
           3
T(K)           P(bar)         rho,kg/m3     
  2000.00        500.000        6551.44     
  1996.79        500.000        6565.61     
  1993.59        500.000        6579.33     
  1990.38        500.000        6592.62     
  1987.18        500.000        6605.51     
  1983.97        500.000        6618.01     
  1980.77        500.000        6630.14     
  1977.56        500.000        6641.92     
  1974.36        500.000        6653.37     
  1971.15        500.000        6664.35     
  1967.95        500.000        6675.04     
  1964.74        500.000        6685.46     
  1961.54        500.000        6695.60     
  1958.33        500.000        6705.49     
  1955.13        500.000        6715.13     
  1951.92        500.000        6724.53     
  1948.72        500.000        6733.72     
  1945.51        500.000        6742.56     
  1942.31        500.000        6751.21     
  1939.10        500.000        6759.66     
  1935.90        500.000        6767.93     
  1932.69        500.000        6776.02     
  1929.49        500.000        6783.93     
  1926.28        500.000        6791.68     
  1923.08        500.000        6799.28     
  1919.87        500.000        6806.61     
  1916.67        500.000        6813.81     
  1913.46        500.000        6820.87     
  1910.26        500.000        6827.79     
  1907.05        500.000        6834.58     
  1903.85        500.000        6841.25     
  1900.64        500.000        6847.80     
  1897.44        500.000        6854.24     
  1894.23        500.000        6860.49     
  1891.03        500.000        6866.64     
  1887.82        500.000        6872.68     
  1884.62        500.000        6878.63     
  1881.41        500.000        6884.46     
  1878.21        500.000        6058.64     
  1875.00        500.000        5259.42     
  1871.79        500.000        4805.08     
  1868.59        500.000        4515.19     
  1865.38        500.000        4309.73     
  1862.18        500.000        3942.43     
  1858.97        500.000        3874.29     
  1855.77        500.000        3818.22     
  1852.56        500.000        3770.37     
  1849.36        500.000        3729.07     
  1846.15        500.000        3693.07     
  1842.95        500.000        3662.41     
  1839.74        500.000        3635.16     
  1836.54        500.000        3610.79     
  1833.33        500.000        3588.87     
  1830.13        500.000        3569.06     
  1826.92        500.000        3551.06     
  1823.72        500.000        3534.66     
  1820.51        500.000        3519.65     
  1817.31        500.000        3506.26     
  1814.10        500.000        3493.89     
  1810.90        500.000        3482.45     
  1807.69        500.000        3471.83     
  1804.49        500.000        3461.89     
  1801.28        500.000        3453.09     
  1798.08        500.000        3444.80     
  1794.87        500.000        3437.05     
  1791.67        500.000        3429.91     
  1788.46        500.000        3423.21     
  1785.26        500.000        3416.91     
  1782.05        500.000        3410.99     
  1778.85        500.000        3405.40     
  1775.64        500.000        3400.13     
  1772.44        500.000        3395.15     
  1769.23        500.000        3390.43     
  1766.03        500.000        3386.07     
  1762.82        500.000        3381.93     
  1759.62        500.000        3378.01     
  1756.41        500.000        3374.28     
  1753.21        500.000        3370.74     
  1750.00        500.000        3367.37     
  1746.79        500.000        3364.16     
  1743.59        500.000        3361.10     
  1740.38        500.000        3358.33     
  1737.18        500.000        3355.68     
  1733.97        500.000        3353.15     
  1730.77        500.000        3350.74     
  1727.56        500.000        3348.44     
  1724.36        500.000        3346.23     
  1721.15        500.000        3344.12     
  1717.95        500.000        3342.10     
  1714.74        500.000        3340.27     
  1711.54        500.000        3338.51     
  1708.33        500.000        3336.86     
  1705.13        500.000        3336.05     
  1701.92        500.000        3337.88     
  1698.72        500.000        3339.68     
  1695.51        500.000        3341.44     
  1692.31        500.000        3343.17     
  1689.10        500.000        3344.87     
  1685.90        500.000        3346.53     
  1682.69        500.000        3348.17     
  1679.49        500.000        3349.79     
  1676.28        500.000        3351.38     
  1673.08        500.000        3352.95     
  1669.87        500.000        3354.49     
  1666.67        500.000        3356.01     
  1663.46        500.000        3357.53     
  1660.26        500.000        3359.03     
  1657.05        500.000        3360.50     
  1653.85        500.000        3361.96     
  1650.64        500.000        3363.41     
  1647.44        500.000        3364.83     
  1644.23        500.000        3366.24     
  1641.03        500.000        3367.63     
  1637.82        500.000        3368.93     
  1634.62        500.000        3370.22     
  1631.41        500.000        3371.49     
  1628.21        500.000        3372.75     
  1625.00        500.000        3374.00     
  1621.79        500.000        3375.24     
  1618.59        500.000        3376.47     
  1615.38        500.000        3377.68     
  1612.18        500.000        3378.82     
  1608.97        500.000        3379.96     
  1605.77        500.000        3381.08     
  1602.56        500.000        3382.19     
  1599.36        500.000        3383.30     
  1596.15        500.000        3384.40     
  1592.95        500.000        3385.49     
  1589.74        500.000        3386.58     
  1586.54        500.000        3387.62     
  1583.33        500.000        3388.66     
  1580.13        500.000        3389.69     
  1576.92        500.000        3390.72     
  1573.72        500.000        3391.74     
  1570.51        500.000        3392.75     
  1567.31        500.000        3393.76     
  1564.10        500.000        3394.76     
  1560.90        500.000        3395.68     
  1557.69        500.000        3396.59     
  1554.49        500.000        3397.49     
  1551.28        500.000        3398.40     
  1548.08        500.000        3399.30     
  1544.87        500.000        3400.19     
  1541.67        500.000        3401.08     
  1538.46        500.000        3401.97     
  1535.26        500.000        3402.87     
  1532.05        500.000        3403.76     
  1528.85        500.000        3403.43     
  1525.64        500.000        3403.04     
  1522.44        500.000        3402.67     
  1519.23        500.000        3402.32     
  1516.03        500.000        3401.98     
  1512.82        500.000        3401.66     
  1509.62        500.000        3401.40     
  1506.41        500.000        3401.16     
  1503.21        500.000        3400.93     
  1500.00        500.000        3400.71     
  1496.79        500.000        3400.49     
  1493.59        500.000        3400.29     
  1490.38        500.000        3400.07     
  1487.18        500.000        3399.84     
  1483.97        500.000        3399.12     
  1480.77        500.000        3398.43     
  1477.56        500.000        3397.77     
  1474.36        500.000        3397.13     
  1471.15        500.000        3396.47     
  1467.95        500.000        3396.06     
  1464.74        500.000        3396.51     
  1461.54        500.000        3395.02     
  1458.33        500.000        3395.47     
  1455.13        500.000        3395.93     
  1451.92        500.000        3396.38     
  1448.72        500.000        3396.83     
  1445.51        500.000        3397.29     
  1442.31        500.000        3397.74     
  1439.10        500.000        3398.19     
  1435.90        500.000        3393.92     
  1432.69        500.000        3394.37     
  1429.49        500.000        3394.83     
  1426.28        500.000        3395.28     
  1423.08        500.000        3394.22     
  1419.87        500.000        3393.12     
  1416.67        500.000        3390.45     
  1413.46        500.000        3390.90     
  1410.26        500.000        3386.07     
  1407.05        500.000        3386.51     
  1403.85        500.000        3386.95     
  1400.64        500.000        3387.40     
  1397.44        500.000        3387.84     
  1394.23        500.000        3388.28     
  1391.03        500.000        3388.73     
  1387.82        500.000        3389.17     
  1384.62        500.000        3375.33     
  1381.41        500.000        3375.77     
  1378.21        500.000        3376.20     
  1375.00        500.000        3376.64     
  1371.79        500.000        3372.00     
  1368.59        500.000        3372.43     
  1365.38        500.000        3370.61     
  1362.18        500.000        3369.99     
  1358.97        500.000        3369.38     
  1355.77        500.000        3369.81     
  1352.56        500.000        3370.24     
  1349.36        500.000        3370.67     
  1346.15        500.000        3371.10     
  1342.95        500.000        3371.53     
  1339.74        500.000        3371.96     
  1336.54        500.000        3372.39     
  1333.33        500.000        3365.49     
  1330.13        500.000        3365.91     
  1326.92        500.000        3366.34     
  1323.72        500.000        3366.76     
  1320.51        500.000        3363.95     
  1317.31        500.000        3364.37     
  1314.10        500.000        3363.27     
  1310.90        500.000        3362.95     
  1307.69        500.000        3362.66     
  1304.49        500.000        3362.38     
  1301.28        500.000        3345.77     
  1298.08        500.000        3346.19     
  1294.87        500.000        3346.42     
  1291.67        500.000        3346.84     
  1288.46        500.000        3347.25     
  1285.26        500.000        3347.67     
  1282.05        500.000        3348.07     
  1278.85        500.000        3348.48     
  1275.64        500.000        3348.90     
  1272.44        500.000        3349.31     
  1269.23        500.000        3349.73     
  1266.03        500.000        3350.14     
  1262.82        500.000        3350.56     
  1259.62        500.000        3350.97     
  1256.41        500.000        3351.19     
  1253.21        500.000        3351.60     
  1250.00        500.000        3352.01     
  1246.79        500.000        3352.43     
  1243.59        500.000        3352.84     
  1240.38        500.000        3353.25     
  1237.18        500.000        3353.66     
  1233.97        500.000        3354.08     
  1230.77        500.000        3354.33     
  1227.56        500.000        3354.74     
  1224.36        500.000        3355.15     
  1221.15        500.000        3355.56     
  1217.95        500.000        3355.97     
  1214.74        500.000        3356.38     
  1211.54        500.000        3356.79     
  1208.33        500.000        3357.20     
  1205.13        500.000        3357.50     
  1201.92        500.000        3357.91     
  1198.72        500.000        3358.32     
  1195.51        500.000        3358.73     
  1192.31        500.000        3359.13     
  1189.10        500.000        3359.54     
  1185.90        500.000        3359.95     
  1182.69        500.000        3360.36     
  1179.49        500.000        3360.68     
  1176.28        500.000        3361.08     
  1173.08        500.000        3361.49     
  1169.87        500.000        3361.90     
  1166.67        500.000        3362.31     
  1163.46        500.000        3362.71     
  1160.26        500.000        3363.12     
  1157.05        500.000        3363.52     
  1153.85        500.000        3363.89     
  1150.64        500.000        3364.29     
  1147.44        500.000        3364.70     
  1144.23        500.000        3365.10     
  1141.03        500.000        3365.51     
  1137.82        500.000        3365.91     
  1134.62        500.000        3366.32     
  1131.41        500.000        3366.72     
  1128.21        500.000        3367.10     
  1125.00        500.000        3367.51     
  1121.79        500.000        3367.91     
  1118.59        500.000        3368.31     
  1115.38        500.000        3368.72     
  1112.18        500.000        3369.12     
  1108.97        500.000        3369.52     
  1105.77        500.000        3369.92     
  1102.56        500.000        3370.34     
  1099.36        500.000        3370.74     
  1096.15        500.000        3371.14     
  1092.95        500.000        3371.55     
  1089.74        500.000        3371.95     
  1086.54        500.000        3372.35     
  1083.33        500.000        3372.75     
  1080.13        500.000        3373.15     
  1076.92        500.000        3373.60     
  1073.72        500.000        3373.99     
  1070.51        500.000        3374.40     
  1067.31        500.000        3374.80     
  1064.10        500.000        3375.21     
  1060.90        500.000        3375.61     
  1057.69        500.000        3376.01     
  1054.49        500.000        3376.41     
  1051.28        500.000        3376.84     
  1048.08        500.000        3377.24     
  1044.87        500.000        3377.64     
  1041.67        500.000        3378.04     
  1038.46        500.000        3378.44     
  1035.26        500.000        3378.84     
  1032.05        500.000        3379.23     
  1028.85        500.000        3379.63     
  1025.64        500.000        3380.08     
  1022.44        500.000        3380.48     
  1019.23        500.000        3380.88     
  1016.03        500.000        3381.28     
  1012.82        500.000        3381.67     
  1009.62        500.000        3382.07     
  1006.41        500.000        3382.47     
  1003.21        500.000        3382.86     
  1000.00        500.000        3383.33     
