|6.6.6
Archiving\03_Data\Deqfrac/QFM_m2/WD94/WD94_6.tab                          
           1
T(K)    
  0.000000000000000E+000
  0.000000000000000E+000
           0
           3
T(K)           P(bar)         rho,kg/m3     
  1631.41        2500.00        3261.33     
  1629.83        2500.00        3254.22     
  1628.25        2500.00        3254.36     
  1626.66        2500.00        3254.87     
  1625.08        2500.00        3255.81     
  1623.50        2500.00        3256.49     
  1621.92        2500.00        3257.94     
  1620.33        2500.00        3257.13     
  1618.75        2500.00        3258.42     
  1617.17        2500.00        3258.76     
  1615.59        2500.00        3260.76     
  1614.00        2500.00        3260.97     
  1612.42        2500.00        3261.28     
  1610.84        2500.00        3261.88     
  1609.26        2500.00        3262.48     
  1607.67        2500.00        3263.47     
  1606.09        2500.00        3263.99     
  1604.51        2500.00        3264.44     
  1602.93        2500.00        3265.91     
  1601.34        2500.00        3266.30     
  1599.76        2500.00        3266.65     
  1598.18        2500.00        3267.36     
  1596.60        2500.00        3267.93     
  1595.01        2500.00        3268.96     
  1593.43        2500.00        3269.46     
  1591.85        2500.00        3269.39     
  1590.27        2500.00        3273.24     
  1588.68        2500.00        3261.87     
  1587.10        2500.00        3279.52     
  1585.52        2500.00        3272.77     
  1583.94        2500.00        3273.56     
  1582.35        2500.00        3274.03     
  1580.77        2500.00        3274.77     
  1579.19        2500.00        3279.26     
  1577.61        2500.00        3274.39     
  1576.02        2500.00        3276.67     
  1574.44        2500.00        3277.78     
  1572.86        2500.00        3277.75     
  1571.28        2500.00        3279.03     
  1569.69        2500.00        3279.34     
  1568.11        2500.00        3279.82     
  1566.53        2500.00        3280.50     
  1564.95        2500.00        3281.28     
  1563.36        2500.00        3281.94     
  1561.78        2500.00        3283.89     
  1560.20        2500.00        3282.63     
  1558.62        2500.00        3283.66     
  1557.03        2500.00        3284.58     
  1555.45        2500.00        3285.20     
  1553.87        2500.00        3285.61     
  1552.29        2500.00        3286.38     
  1550.70        2500.00        3285.91     
  1549.12        2500.00        3287.44     
  1547.54        2500.00        3285.59     
  1545.96        2500.00        3288.78     
  1544.37        2500.00        3285.74     
  1542.79        2500.00        3295.88     
  1541.21        2500.00        3287.88     
  1539.63        2500.00        3292.97     
  1538.04        2500.00        3291.56     
  1536.46        2500.00        3292.74     
  1534.88        2500.00        3292.78     
  1533.30        2500.00        3293.44     
  1531.71        2500.00        3295.09     
  1530.13        2500.00        3294.25     
  1528.55        2500.00        3295.06     
  1526.97        2500.00        3295.84     
  1525.38        2500.00        3296.48     
  1523.80        2500.00        3297.57     
  1522.22        2500.00        3297.78     
  1520.64        2500.00        3298.16     
  1519.05        2500.00        3297.94     
  1517.47        2500.00        3298.23     
  1515.89        2500.00        3300.13     
  1514.31        2500.00        3437.14     
  1512.72        2500.00        3300.25     
  1511.14        2500.00        3301.46     
  1509.56        2500.00        3302.05     
  1507.98        2500.00        3284.34     
  1506.39        2500.00        3280.12     
  1504.81        2500.00        3280.99     
  1503.23        2500.00        3282.02     
  1501.65        2500.00        3282.57     
  1500.06        2500.00        3283.92     
  1498.48        2500.00        3284.37     
  1496.90        2500.00        3285.65     
  1495.32        2500.00        3286.16     
  1493.73        2500.00        3287.72     
  1492.15        2500.00        3281.64     
  1490.57        2500.00        3271.35     
  1488.99        2500.00        3272.49     
  1487.40        2500.00        3274.26     
  1485.82        2500.00        3275.09     
  1484.24        2500.00        3276.87     
  1482.66        2500.00        2886.24     
  1481.07        2500.00        3285.63     
  1479.49        2500.00        3281.10     
  1477.91        2500.00        3282.58     
  1476.33        2500.00        3283.79     
  1474.74        2500.00        3288.96     
  1473.16        2500.00        3290.88     
  1471.58        2500.00        3295.38     
  1470.00        2500.00        3296.74     
  1468.41        2500.00        3298.28     
  1466.83        2500.00        3299.38     
  1465.25        2500.00        3300.78     
  1463.67        2500.00        3302.34     
  1462.08        2500.00        3303.61     
  1460.50        2500.00        3305.15     
  1458.92        2500.00        3306.19     
  1457.34        2500.00        3307.34     
  1455.75        2500.00        3308.81     
  1454.17        2500.00        3310.13     
  1452.59        2500.00        3311.58     
  1451.01        2500.00        3313.01     
  1449.42        2500.00        3314.27     
  1447.84        2500.00        3315.42     
  1446.26        2500.00        3155.52     
  1444.68        2500.00        3134.20     
  1443.09        2500.00        3136.67     
  1441.51        2500.00        3139.21     
  1439.93        2500.00        3141.76     
  1438.35        2500.00        3143.95     
  1436.76        2500.00        3146.67     
  1435.18        2500.00        3149.27     
  1433.60        2500.00        3151.75     
  1432.02        2500.00        3150.06     
  1430.43        2500.00        3157.62     
  1428.85        2500.00        3159.08     
  1427.27        2500.00        3161.66     
  1425.69        2500.00        3164.48     
  1424.10        2500.00        3167.33     
  1422.52        2500.00        3169.88     
  1420.94        2500.00        3172.42     
  1419.36        2500.00        3174.75     
  1417.78        2500.00        3177.38     
  1416.19        2500.00        3180.29     
  1414.61        2500.00        3183.02     
  1413.03        2500.00        3185.57     
  1411.45        2500.00        3188.39     
  1409.86        2500.00        3190.79     
  1408.28        2500.00        3193.61     
  1406.70        2500.00        3196.33     
  1405.12        2500.00        3198.93     
  1403.53        2500.00        3201.98     
  1401.95        2500.00        3204.44     
  1400.37        2500.00        3207.08     
  1398.79        2500.00        3209.65     
  1397.20        2500.00        3212.33     
  1395.62        2500.00        3214.26     
  1394.04        2500.00        3217.70     
  1392.46        2500.00        3220.46     
  1390.87        2500.00        3222.88     
  1389.29        2500.00        3225.77     
  1387.71        2500.00        3228.82     
  1386.13        2500.00        3231.04     
  1384.54        2500.00        3233.71     
  1382.96        2500.00        3236.20     
  1381.38        2500.00        3237.40     
  1379.80        2500.00        3239.31     
  1378.21        2500.00        3243.69     
  1376.63        2500.00        3245.84     
  1375.05        2500.00        3248.54     
  1373.47        2500.00        3250.64     
  1371.88        2500.00        3252.66     
  1370.30        2500.00        3255.31     
  1368.72        2500.00        3257.45     
  1367.14        2500.00        3259.85     
  1365.55        2500.00        3262.27     
  1363.97        2500.00        3264.37     
  1362.39        2500.00        3263.88     
  1360.81        2500.00        3269.93     
  1359.22        2500.00        3270.66     
  1357.64        2500.00        3273.05     
  1356.06        2500.00        3275.21     
  1354.48        2500.00        3277.85     
  1352.89        2500.00        3279.48     
  1351.31        2500.00        3281.71     
  1349.73        2500.00        3283.69     
  1348.15        2500.00        3285.26     
  1346.56        2500.00        3287.07     
  1344.98        2500.00        3289.35     
  1343.40        2500.00        3291.15     
  1341.82        2500.00        3293.43     
  1340.23        2500.00        3295.04     
  1338.65        2500.00        3297.03     
  1337.07        2500.00        3298.33     
  1335.49        2500.00        3300.42     
  1333.90        2500.00        3301.79     
  1332.32        2500.00        3304.05     
  1330.74        2500.00        3305.49     
  1329.16        2500.00        3306.78     
  1327.57        2500.00        3306.51     
  1325.99        2500.00        3309.89     
  1324.41        2500.00        3311.35     
  1322.83        2500.00        3312.33     
  1321.24        2500.00        3315.19     
  1319.66        2500.00        3315.41     
  1318.08        2500.00        3316.75     
  1316.50        2500.00        3318.01     
  1314.91        2500.00        3318.45     
  1313.33        2500.00        3318.78     
  1311.75        2500.00        3320.76     
  1310.17        2500.00        3320.95     
  1308.58        2500.00        3320.93     
  1307.00        2500.00        3321.94     
  1305.42        2500.00        3323.30     
  1303.84        2500.00        3323.69     
  1302.25        2500.00        3323.84     
  1300.67        2500.00        3323.94     
  1299.09        2500.00        3324.32     
  1297.51        2500.00        3324.41     
  1295.92        2500.00        2850.97     
  1294.34        2500.00        2855.85     
  1292.76        2500.00        2872.93     
  1291.18        2500.00        2877.24     
  1289.59        2500.00        2881.19     
  1288.01        2500.00        2884.63     
  1286.43        2500.00        2887.62     
  1284.85        2500.00        2894.25     
  1283.26        2500.00        2888.42     
  1281.68        2500.00        2886.70     
  1280.10        2500.00        2914.77     
  1278.52        2500.00        2901.06     
  1276.93        2500.00        2902.51     
  1275.35        2500.00        2862.40     
  1273.77        2500.00        2822.65     
  1272.19        2500.00        2863.97     
  1270.60        2500.00        2844.82     
  1269.02        2500.00        2890.36     
  1267.44        2500.00        2882.44     
  1265.86        2500.00        2826.65     
  1264.27        2500.00        2913.41     
  1262.69        2500.00        2933.72     
  1261.11        2500.00        2889.23     
  1259.53        2500.00        3447.21     
  1257.94        2500.00        2987.74     
  1256.36        2500.00        2946.01     
  1254.78        2500.00        3064.94     
  1253.20        2500.00        2636.40     
  1251.61        2500.00        3067.61     
  1250.03        2500.00        2896.33     
  1248.45        2500.00        2902.94     
  1246.87        2500.00        2843.11     
  1245.28        2500.00        3097.97     
  1243.70        2500.00        2902.94     
  1242.12        2500.00        2916.57     
  1240.54        2500.00        2837.49     
  1238.95        2500.00        2920.07     
  1237.37        2500.00        2851.34     
  1235.79        2500.00        2904.14     
  1234.21        2500.00        2915.42     
  1232.62        2500.00        2786.80     
  1231.04        2500.00        2771.30     
  1229.46        2500.00        2764.83     
  1227.88        2500.00        2684.58     
  1226.29        2500.00        2684.65     
  1224.71        2500.00        2684.41     
  1223.13        2500.00        2684.10     
  1221.55        2500.00        2684.57     
  1219.96        2500.00        2684.65     
  1218.38        2500.00        2684.89     
  1216.80        2500.00        2684.80     
  1215.22        2500.00        2684.88     
  1213.63        2500.00        2684.99     
  1212.05        2500.00        2685.05     
  1210.47        2500.00        2685.13     
  1208.89        2500.00        2685.21     
  1207.31        2500.00        2685.27     
  1205.72        2500.00        2685.35     
  1204.14        2500.00        2685.43     
  1202.56        2500.00        2685.51     
  1200.98        2500.00        2685.59     
  1199.39        2500.00        2685.67     
  1197.81        2500.00        2685.75     
  1196.23        2500.00        2685.83     
  1194.65        2500.00        2685.91     
  1193.06        2500.00        2685.99     
  1191.48        2500.00        2686.07     
  1189.90        2500.00        2686.15     
  1188.32        2500.00        2686.23     
  1186.73        2500.00        2686.33     
  1185.15        2500.00        2686.41     
  1183.57        2500.00        2686.49     
  1181.99        2500.00        2686.19     
  1180.40        2500.00        2686.65     
  1178.82        2500.00        2686.73     
  1177.24        2500.00        2686.84     
  1175.66        2500.00        2686.92     
  1174.07        2500.00        2687.00     
  1172.49        2500.00        2687.08     
  1170.91        2500.00        2687.16     
  1169.33        2500.00        2687.43     
  1167.74        2500.00        2687.51     
  1166.16        2500.00        2687.59     
  1164.58        2500.00        2687.67     
  1163.00        2500.00        2687.75     
  1161.41        2500.00        2687.64     
  1159.83        2500.00        2687.91     
  1158.25        2500.00        2687.99     
  1156.67        2500.00        2687.88     
  1155.08        2500.00        2688.06     
  1153.50        2500.00        2688.13     
  1151.92        2500.00        2688.20     
  1150.34        2500.00        2688.20     
  1148.75        2500.00        2688.28     
  1147.17        2500.00        2688.41     
  1145.59        2500.00        2688.49     
  1144.01        2500.00        2688.56     
  1142.42        2500.00        2688.64     
  1140.84        2500.00        2688.71     
  1139.26        2500.00        2688.86     
  1137.68        2500.00        2688.92     
  1136.09        2500.00        2688.99     
  1134.51        2500.00        2689.06     
  1132.93        2500.00        2689.13     
  1131.35        2500.00        2689.20     
  1129.76        2500.00        2689.28     
  1128.18        2500.00        2689.46     
  1126.60        2500.00        2689.43     
  1125.02        2500.00        2689.51     
  1123.43        2500.00        2689.70     
  1121.85        2500.00        2689.79     
  1120.27        2500.00        2689.78     
  1118.69        2500.00        2689.94     
  1117.10        2500.00        2689.88     
  1115.52        2500.00        2689.92     
  1113.94        2500.00        2690.00     
  1112.36        2500.00        2690.08     
  1110.77        2500.00        2690.16     
  1109.19        2500.00        2690.35     
  1107.61        2500.00        2690.58     
  1106.03        2500.00        2690.40     
  1104.44        2500.00        2690.48     
  1102.86        2500.00        2690.56     
  1101.28        2500.00        2690.64     
  1099.70        2500.00        2690.71     
  1098.11        2500.00        2690.79     
  1096.53        2500.00        2690.87     
  1094.95        2500.00        2690.95     
  1093.37        2500.00        2691.03     
  1091.78        2500.00        2691.11     
  1090.20        2500.00        2691.19     
  1088.62        2500.00        2691.27     
  1087.04        2500.00        2691.35     
  1085.45        2500.00        2691.42     
  1083.87        2500.00        2691.51     
  1082.29        2500.00        2691.59     
  1080.71        2500.00        2691.67     
  1079.12        2500.00        2691.75     
  1077.54        2500.00        2691.83     
  1075.96        2500.00        2691.91     
  1074.38        2500.00        2691.99     
  1072.79        2500.00        2692.06     
  1071.21        2500.00        2692.14     
  1069.63        2500.00        2692.22     
  1068.05        2500.00        2692.30     
  1066.46        2500.00        2692.38     
  1064.88        2500.00        2692.45     
  1063.30        2500.00        2692.53     
  1061.72        2500.00        2692.61     
  1060.13        2500.00        2692.69     
  1058.55        2500.00        2692.77     
  1056.97        2500.00        2692.84     
  1055.39        2500.00        2692.92     
  1053.80        2500.00        2693.00     
  1052.22        2500.00        2693.08     
  1050.64        2500.00        2693.15     
  1049.06        2500.00        2693.37     
  1047.47        2500.00        2693.44     
  1045.89        2500.00        2693.51     
  1044.31        2500.00        2693.59     
  1042.73        2500.00        2693.66     
  1041.14        2500.00        2693.73     
  1039.56        2500.00        2693.81     
  1037.98        2500.00        2693.88     
  1036.40        2500.00        2693.96     
  1034.81        2500.00        2694.03     
  1033.23        2500.00        2694.11     
  1031.65        2500.00        2694.18     
  1030.07        2500.00        2694.26     
  1028.48        2500.00        2694.33     
  1026.90        2500.00        2694.41     
  1025.32        2500.00        2694.48     
  1023.74        2500.00        2694.56     
  1022.15        2500.00        2694.64     
  1020.57        2500.00        2694.71     
  1018.99        2500.00        2694.79     
  1017.41        2500.00        2694.86     
  1015.82        2500.00        2694.94     
  1014.24        2500.00        2695.01     
  1012.66        2500.00        2695.09     
  1011.08        2500.00        2695.16     
  1009.49        2500.00        2695.24     
  1007.91        2500.00        2695.32     
  1006.33        2500.00        2695.40     
  1004.75        2500.00        2695.47     
  1003.16        2500.00        2695.55     
  1001.58        2500.00        2695.62     
  1000.00        2500.00        2695.70     
