|6.6.6
Archiving\03_Data\DeqLP/QFM_m1.5/YM20/YM20_6.tab                        
           1
T(K)    
  0.000000000000000E+000
  0.000000000000000E+000
           0
           3
T(K)           P(bar)         rho,kg/m3     
  2000.00        500.000        8099.88     
  1996.79        500.000        8101.72     
  1993.59        500.000        8103.55     
  1990.38        500.000        8105.38     
  1987.18        500.000        8107.21     
  1983.97        500.000        8109.03     
  1980.77        500.000        8110.86     
  1977.56        500.000        8112.68     
  1974.36        500.000        8114.50     
  1971.15        500.000        8116.32     
  1967.95        500.000        8118.14     
  1964.74        500.000        8119.96     
  1961.54        500.000        8121.78     
  1958.33        500.000        8123.59     
  1955.13        500.000        8125.41     
  1951.92        500.000        8127.22     
  1948.72        500.000        8129.03     
  1945.51        500.000        8130.84     
  1942.31        500.000        8132.64     
  1939.10        500.000        8134.45     
  1935.90        500.000        3268.65     
  1932.69        500.000        3195.16     
  1929.49        500.000        3189.73     
  1926.28        500.000        3185.04     
  1923.08        500.000        3181.31     
  1919.87        500.000        3175.16     
  1916.67        500.000        3171.11     
  1913.46        500.000        3168.30     
  1910.26        500.000        3166.28     
  1907.05        500.000        3164.80     
  1903.85        500.000        3163.69     
  1900.64        500.000        3162.87     
  1897.44        500.000        3162.25     
  1894.23        500.000        3162.01     
  1891.03        500.000        3163.42     
  1887.82        500.000        3166.49     
  1884.62        500.000        3169.09     
  1881.41        500.000        3171.88     
  1878.21        500.000        3174.30     
  1875.00        500.000        3176.43     
  1871.79        500.000        3178.33     
  1868.59        500.000        3181.13     
  1865.38        500.000        3183.64     
  1862.18        500.000        3185.92     
  1858.97        500.000        3188.01     
  1855.77        500.000        3189.93     
  1852.56        500.000        3191.71     
  1849.36        500.000        3193.37     
  1846.15        500.000        3194.93     
  1842.95        500.000        3197.30     
  1839.74        500.000        3199.52     
  1836.54        500.000        3201.61     
  1833.33        500.000        3203.58     
  1830.13        500.000        3205.45     
  1826.92        500.000        3207.22     
  1823.72        500.000        3208.91     
  1820.51        500.000        3210.52     
  1817.31        500.000        3212.69     
  1814.10        500.000        3214.77     
  1810.90        500.000        3216.75     
  1807.69        500.000        3218.66     
  1804.49        500.000        3220.49     
  1801.28        500.000        3222.25     
  1798.08        500.000        3223.94     
  1794.87        500.000        3225.58     
  1791.67        500.000        3227.58     
  1788.46        500.000        3229.52     
  1785.26        500.000        3231.40     
  1782.05        500.000        3233.21     
  1778.85        500.000        3234.97     
  1775.64        500.000        3236.67     
  1772.44        500.000        3238.33     
  1769.23        500.000        3239.94     
  1766.03        500.000        3241.79     
  1762.82        500.000        3243.59     
  1759.62        500.000        3245.34     
  1756.41        500.000        3247.05     
  1753.21        500.000        3248.71     
  1750.00        500.000        3250.33     
  1746.79        500.000        3251.92     
  1743.59        500.000        3253.46     
  1740.38        500.000        3255.14     
  1737.18        500.000        3256.79     
  1733.97        500.000        3258.39     
  1730.77        500.000        3259.97     
  1727.56        500.000        3261.51     
  1724.36        500.000        3263.01     
  1721.15        500.000        3264.49     
  1717.95        500.000        3265.94     
  1714.74        500.000        3267.44     
  1711.54        500.000        3268.91     
  1708.33        500.000        3270.36     
  1705.13        500.000        3271.78     
  1701.92        500.000        3273.18     
  1698.72        500.000        3274.55     
  1695.51        500.000        3275.90     
  1692.31        500.000        3277.23     
  1689.10        500.000        3278.55     
  1685.90        500.000        3279.85     
  1682.69        500.000        3281.13     
  1679.49        500.000        3282.39     
  1676.28        500.000        3283.63     
  1673.08        500.000        3284.86     
  1669.87        500.000        3286.07     
  1666.67        500.000        3287.26     
  1663.46        500.000        3288.41     
  1660.26        500.000        3289.55     
  1657.05        500.000        3290.68     
  1653.85        500.000        3291.79     
  1650.64        500.000        3292.89     
  1647.44        500.000        3293.98     
  1644.23        500.000        3295.05     
  1641.03        500.000        3296.12     
  1637.82        500.000        3297.12     
  1634.62        500.000        3298.11     
  1631.41        500.000        3299.10     
  1628.21        500.000        3300.07     
  1625.00        500.000        3301.04     
  1621.79        500.000        3302.00     
  1618.59        500.000        3302.95     
  1615.38        500.000        3303.89     
  1612.18        500.000        3304.13     
  1608.97        500.000        3303.00     
  1605.77        500.000        3302.04     
  1602.56        500.000        3301.13     
  1599.36        500.000        3300.48     
  1596.15        500.000        3299.86     
  1592.95        500.000        3299.28     
  1589.74        500.000        3298.73     
  1586.54        500.000        3298.45     
  1583.33        500.000        3298.19     
  1580.13        500.000        3297.95     
  1576.92        500.000        3297.73     
  1573.72        500.000        3297.52     
  1570.51        500.000        3297.33     
  1567.31        500.000        3297.16     
  1564.10        500.000        3297.00     
  1560.90        500.000        3297.02     
  1557.69        500.000        3297.05     
  1554.49        500.000        3297.09     
  1551.28        500.000        3297.13     
  1548.08        500.000        3297.19     
  1544.87        500.000        3297.25     
  1541.67        500.000        3297.32     
  1538.46        500.000        3297.39     
  1535.26        500.000        3297.54     
  1532.05        500.000        3297.70     
  1528.85        500.000        3297.87     
  1525.64        500.000        3298.04     
  1522.44        500.000        3298.21     
  1519.23        500.000        3298.39     
  1516.03        500.000        3298.57     
  1512.82        500.000        3298.76     
  1509.62        500.000        3298.97     
  1506.41        500.000        3299.18     
  1503.21        500.000        3299.40     
  1500.00        500.000        3299.63     
  1496.79        500.000        3299.86     
  1493.59        500.000        3300.09     
  1490.38        500.000        3300.32     
  1487.18        500.000        3300.56     
  1483.97        500.000        3300.81     
  1480.77        500.000        3301.07     
  1477.56        500.000        3301.33     
  1474.36        500.000        3301.59     
  1471.15        500.000        3301.90     
  1467.95        500.000        3302.29     
  1464.74        500.000        3302.68     
  1461.54        500.000        3303.07     
  1458.33        500.000        3303.51     
  1455.13        500.000        3303.95     
  1451.92        500.000        3304.38     
  1448.72        500.000        3304.81     
  1445.51        500.000        3305.27     
  1442.31        500.000        3304.69     
  1439.10        500.000        3303.24     
  1435.90        500.000        3301.89     
  1432.69        500.000        3302.33     
  1429.49        500.000        3302.77     
  1426.28        500.000        3303.21     
  1423.08        500.000        3303.65     
  1419.87        500.000        3304.08     
  1416.67        500.000        3304.52     
  1413.46        500.000        3304.96     
  1410.26        500.000        3296.67     
  1407.05        500.000        3297.10     
  1403.85        500.000        3297.54     
  1400.64        500.000        3297.97     
  1397.44        500.000        3298.40     
  1394.23        500.000        3298.83     
  1391.03        500.000        3299.26     
  1387.82        500.000        3299.69     
  1384.62        500.000        3295.16     
  1381.41        500.000        3295.59     
  1378.21        500.000        3296.02     
  1375.00        500.000        3296.45     
  1371.79        500.000        3296.87     
  1368.59        500.000        3297.30     
  1365.38        500.000        3297.73     
  1362.18        500.000        3298.15     
  1358.97        500.000        3294.79     
  1355.77        500.000        3295.21     
  1352.56        500.000        3295.64     
  1349.36        500.000        3296.06     
  1346.15        500.000        3296.48     
  1342.95        500.000        3296.91     
  1339.74        500.000        3297.33     
  1336.54        500.000        3297.75     
  1333.33        500.000        3294.94     
  1330.13        500.000        3295.36     
  1326.92        500.000        3295.78     
  1323.72        500.000        3296.20     
  1320.51        500.000        3296.62     
  1317.31        500.000        3297.04     
  1314.10        500.000        3297.46     
  1310.90        500.000        3297.88     
  1307.69        500.000        3295.45     
  1304.49        500.000        3295.86     
  1301.28        500.000        3295.62     
  1298.08        500.000        3291.11     
  1294.87        500.000        3291.46     
  1291.67        500.000        3291.87     
  1288.46        500.000        3292.29     
  1285.26        500.000        3292.70     
  1282.05        500.000        3292.85     
  1278.85        500.000        3293.27     
  1275.64        500.000        3293.68     
  1272.44        500.000        3294.09     
  1269.23        500.000        3294.50     
  1266.03        500.000        3294.92     
  1262.82        500.000        3295.33     
  1259.62        500.000        3295.74     
  1256.41        500.000        3295.66     
  1253.21        500.000        3296.07     
  1250.00        500.000        3296.48     
  1246.79        500.000        3296.89     
  1243.59        500.000        3297.30     
  1240.38        500.000        3297.71     
  1237.18        500.000        3298.12     
  1233.97        500.000        3298.52     
  1230.77        500.000        3298.48     
  1227.56        500.000        3298.89     
  1224.36        500.000        3299.30     
  1221.15        500.000        3299.70     
  1217.95        500.000        3300.11     
  1214.74        500.000        3300.52     
  1211.54        500.000        3300.93     
  1208.33        500.000        3301.33     
  1205.13        500.000        3301.32     
  1201.92        500.000        3301.73     
  1198.72        500.000        3302.13     
  1195.51        500.000        3302.54     
  1192.31        500.000        3302.94     
  1189.10        500.000        3303.35     
  1185.90        500.000        3303.75     
  1182.69        500.000        3304.16     
  1179.49        500.000        3304.18     
  1176.28        500.000        3304.59     
  1173.08        500.000        3304.99     
  1169.87        500.000        3305.39     
  1166.67        500.000        3305.80     
  1163.46        500.000        3306.20     
  1160.26        500.000        3306.60     
  1157.05        500.000        3307.00     
  1153.85        500.000        3307.06     
  1150.64        500.000        3307.46     
  1147.44        500.000        3307.86     
  1144.23        500.000        3308.26     
  1141.03        500.000        3308.66     
  1137.82        500.000        3309.06     
  1134.62        500.000        3309.46     
  1131.41        500.000        3309.86     
  1128.21        500.000        3309.95     
  1125.00        500.000        3310.35     
  1121.79        500.000        3310.75     
  1118.59        500.000        3311.15     
  1115.38        500.000        3311.55     
  1112.18        500.000        3311.95     
  1108.97        500.000        3312.35     
  1105.77        500.000        3312.74     
  1102.56        500.000        3312.87     
  1099.36        500.000        3313.27     
  1096.15        500.000        3313.66     
  1092.95        500.000        3314.06     
  1089.74        500.000        3314.46     
  1086.54        500.000        3314.85     
  1083.33        500.000        3315.25     
  1080.13        500.000        3315.64     
  1076.92        500.000        3315.81     
  1073.72        500.000        3316.20     
  1070.51        500.000        3316.54     
  1067.31        500.000        3316.91     
  1064.10        500.000        3317.28     
  1060.90        500.000        3317.67     
  1057.69        500.000        3318.07     
  1054.49        500.000        3318.46     
  1051.28        500.000        3318.75     
  1048.08        500.000        3319.14     
  1044.87        500.000        3319.53     
  1041.67        500.000        3319.93     
  1038.46        500.000        3320.32     
  1035.26        500.000        3320.71     
  1032.05        500.000        3321.10     
  1028.85        500.000        3321.50     
  1025.64        500.000        3321.69     
  1022.44        500.000        3322.08     
  1019.23        500.000        3322.47     
  1016.03        500.000        3322.86     
  1012.82        500.000        3323.26     
  1009.62        500.000        3323.65     
  1006.41        500.000        3324.04     
  1003.21        500.000        3324.43     
  1000.00        500.000        3324.64     
