|6.6.6
Archiving\03_Data\eqLP/QFM_m3.5/ALH/ALH_6.tab                             
           1
T(K)    
  0.000000000000000E+000
  0.000000000000000E+000
           0
           3
T(K)           P(bar)         rho,kg/m3     
  2000.00        500.000        4954.13     
  1996.79        500.000        4955.04     
  1993.59        500.000        4955.96     
  1990.38        500.000        4956.88     
  1987.18        500.000        4957.79     
  1983.97        500.000        4958.71     
  1980.77        500.000        4959.62     
  1977.56        500.000        4960.54     
  1974.36        500.000        4961.45     
  1971.15        500.000        4962.36     
  1967.95        500.000        4963.27     
  1964.74        500.000        4964.18     
  1961.54        500.000        4965.09     
  1958.33        500.000        4966.00     
  1955.13        500.000        4966.91     
  1951.92        500.000        4967.82     
  1948.72        500.000        4968.73     
  1945.51        500.000        4969.64     
  1942.31        500.000        4970.54     
  1939.10        500.000        4971.45     
  1935.90        500.000        4972.35     
  1932.69        500.000        4973.26     
  1929.49        500.000        4974.16     
  1926.28        500.000        4975.07     
  1923.08        500.000        4975.97     
  1919.87        500.000        4976.87     
  1916.67        500.000        4977.77     
  1913.46        500.000        4978.67     
  1910.26        500.000        4979.57     
  1907.05        500.000        4980.47     
  1903.85        500.000        4981.37     
  1900.64        500.000        4982.27     
  1897.44        500.000        4983.17     
  1894.23        500.000        4984.07     
  1891.03        500.000        4984.96     
  1887.82        500.000        3954.49     
  1884.62        500.000        3534.37     
  1881.41        500.000        3418.81     
  1878.21        500.000        3363.28     
  1875.00        500.000        3330.77     
  1871.79        500.000        3309.51     
  1868.59        500.000        3297.56     
  1865.38        500.000        3288.69     
  1862.18        500.000        3281.87     
  1858.97        500.000        3276.49     
  1855.77        500.000        3273.05     
  1852.56        500.000        3270.24     
  1849.36        500.000        3268.52     
  1846.15        500.000        3266.74     
  1842.95        500.000        3250.57     
  1839.74        500.000        3243.81     
  1836.54        500.000        3245.33     
  1833.33        500.000        3246.75     
  1830.13        500.000        3248.38     
  1826.92        500.000        3249.92     
  1823.72        500.000        3251.65     
  1820.51        500.000        3254.15     
  1817.31        500.000        3257.08     
  1814.10        500.000        3259.84     
  1810.90        500.000        3262.45     
  1807.69        500.000        3264.92     
  1804.49        500.000        3267.28     
  1801.28        500.000        3269.52     
  1798.08        500.000        3271.66     
  1794.87        500.000        3273.70     
  1791.67        500.000        3276.40     
  1788.46        500.000        3278.99     
  1785.26        500.000        3281.47     
  1782.05        500.000        3283.86     
  1778.85        500.000        3286.15     
  1775.64        500.000        3288.36     
  1772.44        500.000        3290.50     
  1769.23        500.000        3292.56     
  1766.03        500.000        3295.04     
  1762.82        500.000        3297.43     
  1759.62        500.000        3299.75     
  1756.41        500.000        3302.01     
  1753.21        500.000        3304.19     
  1750.00        500.000        3306.31     
  1746.79        500.000        3308.37     
  1743.59        500.000        3310.38     
  1740.38        500.000        3312.60     
  1737.18        500.000        3314.76     
  1733.97        500.000        3316.87     
  1730.77        500.000        3318.93     
  1727.56        500.000        3320.94     
  1724.36        500.000        3322.90     
  1721.15        500.000        3324.82     
  1717.95        500.000        3326.70     
  1714.74        500.000        3328.70     
  1711.54        500.000        3330.65     
  1708.33        500.000        3332.57     
  1705.13        500.000        3334.45     
  1701.92        500.000        3336.29     
  1698.72        500.000        3338.10     
  1695.51        500.000        3339.87     
  1692.31        500.000        3341.62     
  1689.10        500.000        3343.35     
  1685.90        500.000        3345.06     
  1682.69        500.000        3346.74     
  1679.49        500.000        3348.40     
  1676.28        500.000        3350.03     
  1673.08        500.000        3351.63     
  1669.87        500.000        3353.21     
  1666.67        500.000        3354.77     
  1663.46        500.000        3356.28     
  1660.26        500.000        3357.78     
  1657.05        500.000        3359.25     
  1653.85        500.000        3360.71     
  1650.64        500.000        3362.15     
  1647.44        500.000        3363.57     
  1644.23        500.000        3364.97     
  1641.03        500.000        3366.36     
  1637.82        500.000        3367.68     
  1634.62        500.000        3368.98     
  1631.41        500.000        3370.27     
  1628.21        500.000        3371.55     
  1625.00        500.000        3372.82     
  1621.79        500.000        3374.08     
  1618.59        500.000        3375.32     
  1615.38        500.000        3376.55     
  1612.18        500.000        3377.77     
  1608.97        500.000        3378.99     
  1605.77        500.000        3380.19     
  1602.56        500.000        3381.38     
  1599.36        500.000        3382.57     
  1596.15        500.000        3383.74     
  1592.95        500.000        3384.91     
  1589.74        500.000        3386.07     
  1586.54        500.000        3387.06     
  1583.33        500.000        3388.04     
  1580.13        500.000        3389.02     
  1576.92        500.000        3390.00     
  1573.72        500.000        3390.97     
  1570.51        500.000        3391.93     
  1567.31        500.000        3392.89     
  1564.10        500.000        3393.84     
  1560.90        500.000        3394.81     
  1557.69        500.000        3395.76     
  1554.49        500.000        3396.72     
  1551.28        500.000        3397.67     
  1548.08        500.000        3398.61     
  1544.87        500.000        3399.55     
  1541.67        500.000        3400.49     
  1538.46        500.000        3401.42     
  1535.26        500.000        3402.24     
  1532.05        500.000        3403.05     
  1528.85        500.000        3402.74     
  1525.64        500.000        3402.36     
  1522.44        500.000        3401.99     
  1519.23        500.000        3401.64     
  1516.03        500.000        3401.31     
  1512.82        500.000        3400.98     
  1509.62        500.000        3400.74     
  1506.41        500.000        3400.51     
  1503.21        500.000        3400.29     
  1500.00        500.000        3400.08     
  1496.79        500.000        3399.88     
  1493.59        500.000        3399.69     
  1490.38        500.000        3399.51     
  1487.18        500.000        3399.33     
  1483.97        500.000        3398.99     
  1480.77        500.000        3398.28     
  1477.56        500.000        3397.63     
  1474.36        500.000        3397.00     
  1471.15        500.000        3396.30     
  1467.95        500.000        3395.72     
  1464.74        500.000        3396.17     
  1461.54        500.000        3394.80     
  1458.33        500.000        3395.25     
  1455.13        500.000        3395.70     
  1451.92        500.000        3396.16     
  1448.72        500.000        3396.61     
  1445.51        500.000        3397.07     
  1442.31        500.000        3397.52     
  1439.10        500.000        3397.97     
  1435.90        500.000        3393.65     
  1432.69        500.000        3394.11     
  1429.49        500.000        3394.56     
  1426.28        500.000        3395.01     
  1423.08        500.000        3393.97     
  1419.87        500.000        3393.97     
  1416.67        500.000        3391.24     
  1413.46        500.000        3391.69     
  1410.26        500.000        3386.75     
  1407.05        500.000        3387.20     
  1403.85        500.000        3387.64     
  1400.64        500.000        3388.09     
  1397.44        500.000        3388.53     
  1394.23        500.000        3388.97     
  1391.03        500.000        3389.42     
  1387.82        500.000        3389.86     
  1384.62        500.000        3375.82     
  1381.41        500.000        3376.26     
  1378.21        500.000        3376.69     
  1375.00        500.000        3377.13     
  1371.79        500.000        3377.57     
  1368.59        500.000        3378.00     
  1365.38        500.000        3378.44     
  1362.18        500.000        3378.87     
  1358.97        500.000        3369.77     
  1355.77        500.000        3370.20     
  1352.56        500.000        3370.63     
  1349.36        500.000        3371.06     
  1346.15        500.000        3371.49     
  1342.95        500.000        3371.92     
  1339.74        500.000        3372.35     
  1336.54        500.000        3372.78     
  1333.33        500.000        3365.74     
  1330.13        500.000        3366.16     
  1326.92        500.000        3366.59     
  1323.72        500.000        3367.01     
  1320.51        500.000        3367.44     
  1317.31        500.000        3367.86     
  1314.10        500.000        3368.29     
  1310.90        500.000        3368.71     
  1307.69        500.000        3362.88     
  1304.49        500.000        3362.60     
  1301.28        500.000        3346.54     
  1298.08        500.000        3346.40     
  1294.87        500.000        3346.77     
  1291.67        500.000        3347.19     
  1288.46        500.000        3347.61     
  1285.26        500.000        3348.02     
  1282.05        500.000        3348.32     
  1278.85        500.000        3348.74     
  1275.64        500.000        3349.15     
  1272.44        500.000        3349.57     
  1269.23        500.000        3349.98     
  1266.03        500.000        3350.40     
  1262.82        500.000        3350.81     
  1259.62        500.000        3351.22     
  1256.41        500.000        3351.43     
  1253.21        500.000        3351.84     
  1250.00        500.000        3352.25     
  1246.79        500.000        3352.67     
  1243.59        500.000        3353.08     
  1240.38        500.000        3353.49     
  1237.18        500.000        3353.90     
  1233.97        500.000        3354.31     
  1230.77        500.000        3354.56     
  1227.56        500.000        3354.97     
  1224.36        500.000        3355.38     
  1221.15        500.000        3355.79     
  1217.95        500.000        3356.21     
  1214.74        500.000        3356.62     
  1211.54        500.000        3357.03     
  1208.33        500.000        3357.44     
  1205.13        500.000        3357.71     
  1201.92        500.000        3358.12     
  1198.72        500.000        3358.53     
  1195.51        500.000        3358.94     
  1192.31        500.000        3359.35     
  1189.10        500.000        3359.76     
  1185.90        500.000        3360.17     
  1182.69        500.000        3360.58     
  1179.49        500.000        3360.90     
  1176.28        500.000        3361.30     
  1173.08        500.000        3361.71     
  1169.87        500.000        3362.12     
  1166.67        500.000        3362.52     
  1163.46        500.000        3362.93     
  1160.26        500.000        3363.34     
  1157.05        500.000        3363.74     
  1153.85        500.000        3364.09     
  1150.64        500.000        3364.50     
  1147.44        500.000        3364.90     
  1144.23        500.000        3365.31     
  1141.03        500.000        3365.71     
  1137.82        500.000        3366.12     
  1134.62        500.000        3366.52     
  1131.41        500.000        3366.93     
  1128.21        500.000        3367.30     
  1125.00        500.000        3367.70     
  1121.79        500.000        3368.10     
  1118.59        500.000        3368.51     
  1115.38        500.000        3368.91     
  1112.18        500.000        3369.31     
  1108.97        500.000        3369.71     
  1105.77        500.000        3370.12     
  1102.56        500.000        3370.53     
  1099.36        500.000        3370.93     
  1096.15        500.000        3371.33     
  1092.95        500.000        3371.73     
  1089.74        500.000        3372.13     
  1086.54        500.000        3372.53     
  1083.33        500.000        3372.93     
  1080.13        500.000        3373.33     
  1076.92        500.000        3373.78     
  1073.72        500.000        3374.17     
  1070.51        500.000        3374.58     
  1067.31        500.000        3374.98     
  1064.10        500.000        3375.39     
  1060.90        500.000        3375.79     
  1057.69        500.000        3376.19     
  1054.49        500.000        3376.59     
  1051.28        500.000        3377.01     
  1048.08        500.000        3377.41     
  1044.87        500.000        3377.81     
  1041.67        500.000        3378.21     
  1038.46        500.000        3378.61     
  1035.26        500.000        3379.01     
  1032.05        500.000        3379.40     
  1028.85        500.000        3379.80     
  1025.64        500.000        3380.26     
  1022.44        500.000        3380.66     
  1019.23        500.000        3381.05     
  1016.03        500.000        3381.45     
  1012.82        500.000        3381.85     
  1009.62        500.000        3382.24     
  1006.41        500.000        3382.64     
  1003.21        500.000        3383.04     
  1000.00        500.000        3383.51     
