|6.6.6
Archiving\03_Data\Dfrac/QFM_m4.75/YM20/YM20_6.tab                       
           1
T(K)    
  0.000000000000000E+000
  0.000000000000000E+000
           0
           3
T(K)           P(bar)         rho,kg/m3     
  2000.00        2500.00        7316.44     
  1997.49        2500.00        7316.63     
  1994.99        2500.00        7316.87     
  1992.48        2500.00        7317.15     
  1989.97        2500.00        7317.47     
  1987.47        2500.00        7317.83     
  1984.96        2500.00        7318.23     
  1982.46        2500.00        7318.66     
  1979.95        2500.00        7319.12     
  1977.44        2500.00        7319.61     
  1974.94        2500.00        7320.12     
  1972.43        2500.00        7320.66     
  1969.92        2500.00        7321.22     
  1967.42        2500.00        7321.81     
  1964.91        2500.00        7322.41     
  1962.41        2500.00        7323.03     
  1959.90        2500.00        7323.67     
  1957.39        2500.00        7324.32     
  1954.89        2500.00        7324.99     
  1952.38        2500.00        7325.68     
  1949.87        2500.00        7326.65     
  1947.37        2500.00        7327.09     
  1944.86        2500.00        7327.81     
  1942.36        2500.00        7330.38     
  1939.85        2500.00        7331.32     
  1937.34        2500.00        7330.05     
  1934.84        2500.00        7330.81     
  1932.33        2500.00        7331.59     
  1929.82        2500.00        7332.37     
  1927.32        2500.00        7333.16     
  1924.81        2500.00        7333.96     
  1922.31        2500.00        7334.77     
  1919.80        2500.00        5837.52     
  1917.29        2500.00        3163.87     
  1914.79        2500.00        3358.23     
  1912.28        2500.00        3143.73     
  1909.77        2500.00        3144.77     
  1907.27        2500.00        3145.87     
  1904.76        2500.00        3147.92     
  1902.26        2500.00        3149.10     
  1899.75        2500.00        3150.34     
  1897.24        2500.00        3151.99     
  1894.74        2500.00        3153.47     
  1892.23        2500.00        3182.08     
  1889.72        2500.00        3155.55     
  1887.22        2500.00        3207.53     
  1884.71        2500.00        3159.33     
  1882.21        2500.00        3169.27     
  1879.70        2500.00        3185.09     
  1877.19        2500.00        3186.95     
  1874.69        2500.00        3187.81     
  1872.18        2500.00        3189.66     
  1869.67        2500.00        3191.09     
  1867.17        2500.00        3192.54     
  1864.66        2500.00        3194.53     
  1862.16        2500.00        3196.20     
  1859.65        2500.00        3197.20     
  1857.14        2500.00        3198.58     
  1854.64        2500.00        3200.21     
  1852.13        2500.00        3201.71     
  1849.62        2500.00        3203.38     
  1847.12        2500.00        3204.73     
  1844.61        2500.00        3206.34     
  1842.11        2500.00        3207.78     
  1839.60        2500.00        3209.34     
  1837.09        2500.00        3210.24     
  1834.59        2500.00        3212.31     
  1832.08        2500.00        3214.20     
  1829.57        2500.00        3214.37     
  1827.07        2500.00        3216.58     
  1824.56        2500.00        3218.28     
  1822.06        2500.00        3219.65     
  1819.55        2500.00        3221.22     
  1817.04        2500.00        3222.85     
  1814.54        2500.00        3224.75     
  1812.03        2500.00        3226.19     
  1809.52        2500.00        3227.01     
  1807.02        2500.00        3228.73     
  1804.51        2500.00        3230.88     
  1802.01        2500.00        3231.65     
  1799.50        2500.00        3233.53     
  1796.99        2500.00        3234.94     
  1794.49        2500.00        3236.40     
  1791.98        2500.00        3237.59     
  1789.47        2500.00        3239.11     
  1786.97        2500.00        3240.68     
  1784.46        2500.00        3242.11     
  1781.95        2500.00        3244.24     
  1779.45        2500.00        3245.66     
  1776.94        2500.00        3246.30     
  1774.44        2500.00        3248.24     
  1771.93        2500.00        3249.68     
  1769.42        2500.00        3251.33     
  1766.92        2500.00        3251.89     
  1764.41        2500.00        3254.18     
  1761.90        2500.00        3255.23     
  1759.40        2500.00        3256.91     
  1756.89        2500.00        3258.60     
  1754.39        2500.00        3260.18     
  1751.88        2500.00        3261.60     
  1749.37        2500.00        3262.91     
  1746.87        2500.00        3264.50     
  1744.36        2500.00        3265.96     
  1741.85        2500.00        3267.04     
  1739.35        2500.00        3267.41     
  1736.84        2500.00        3269.88     
  1734.34        2500.00        3271.64     
  1731.83        2500.00        3273.06     
  1729.32        2500.00        3273.87     
  1726.82        2500.00        3275.39     
  1724.31        2500.00        3276.96     
  1721.80        2500.00        3278.41     
  1719.30        2500.00        3279.42     
  1716.79        2500.00        3281.67     
  1714.29        2500.00        3282.91     
  1711.78        2500.00        3286.45     
  1709.27        2500.00        3285.62     
  1706.77        2500.00        3284.33     
  1704.26        2500.00        3287.49     
  1701.75        2500.00        3289.24     
  1699.25        2500.00        3290.46     
  1696.74        2500.00        3291.89     
  1694.24        2500.00        3293.46     
  1691.73        2500.00        3294.30     
  1689.22        2500.00        3295.93     
  1686.72        2500.00        3297.00     
  1684.21        2500.00        3299.08     
  1681.70        2500.00        3300.17     
  1679.20        2500.00        3301.47     
  1676.69        2500.00        3303.31     
  1674.19        2500.00        3304.11     
  1671.68        2500.00        3305.36     
  1669.17        2500.00        3306.01     
  1666.67        2500.00        3307.68     
  1664.16        2500.00        3229.17     
  1661.65        2500.00        3223.38     
  1659.15        2500.00        3224.11     
  1656.64        2500.00        3225.35     
  1654.14        2500.00        3225.94     
  1651.63        2500.00        3226.79     
  1649.12        2500.00        3227.91     
  1646.62        2500.00        3228.78     
  1644.11        2500.00        3229.68     
  1641.60        2500.00        3230.22     
  1639.10        2500.00        3230.75     
  1636.59        2500.00        3232.72     
  1634.09        2500.00        3232.63     
  1631.58        2500.00        3235.43     
  1629.07        2500.00        3252.59     
  1626.57        2500.00        3235.42     
  1624.06        2500.00        3237.02     
  1621.55        2500.00        3237.82     
  1619.05        2500.00        3238.16     
  1616.54        2500.00        3238.23     
  1614.04        2500.00        3239.40     
  1611.53        2500.00        3240.85     
  1609.02        2500.00        3241.12     
  1606.52        2500.00        3241.86     
  1604.01        2500.00        3243.03     
  1601.50        2500.00        3244.47     
  1599.00        2500.00        3245.02     
  1596.49        2500.00        3245.06     
  1593.98        2500.00        3246.22     
  1591.48        2500.00        3246.92     
  1588.97        2500.00        3248.18     
  1586.47        2500.00        3249.15     
  1583.96        2500.00        3253.34     
  1581.45        2500.00        3246.79     
  1578.95        2500.00        3251.67     
  1576.44        2500.00        3250.77     
  1573.93        2500.00        3252.85     
  1571.43        2500.00        3253.80     
  1568.92        2500.00        3254.21     
  1566.42        2500.00        3254.73     
  1563.91        2500.00        3255.38     
  1561.40        2500.00        3258.30     
  1558.90        2500.00        3257.44     
  1556.39        2500.00        3256.79     
  1553.88        2500.00        3259.46     
  1551.38        2500.00        3260.02     
  1548.87        2500.00        3260.85     
  1546.37        2500.00        3260.78     
  1543.86        2500.00        3262.09     
  1541.35        2500.00        3262.43     
  1538.85        2500.00        3263.44     
  1536.34        2500.00        3263.69     
  1533.83        2500.00        3265.05     
  1531.33        2500.00        3258.50     
  1528.82        2500.00        3247.58     
  1526.32        2500.00        3249.95     
  1523.81        2500.00        3250.70     
  1521.30        2500.00        3252.57     
  1518.80        2500.00        3253.62     
  1516.29        2500.00        3254.96     
  1513.78        2500.00        3256.14     
  1511.28        2500.00        3257.70     
  1508.77        2500.00        3258.41     
  1506.27        2500.00        3260.09     
  1503.76        2500.00        3261.86     
  1501.25        2500.00        3263.47     
  1498.75        2500.00        3260.06     
  1496.24        2500.00        3251.68     
  1493.73        2500.00        3253.57     
  1491.23        2500.00        3255.70     
  1488.72        2500.00        3257.33     
  1486.22        2500.00        3259.63     
  1483.71        2500.00        3261.34     
  1481.20        2500.00        3263.64     
  1478.70        2500.00        3265.23     
  1476.19        2500.00        3267.45     
  1473.68        2500.00        3269.45     
  1471.18        2500.00        3271.54     
  1468.67        2500.00        3273.72     
  1466.17        2500.00        3275.84     
  1463.66        2500.00        3277.95     
  1461.15        2500.00        3098.59     
  1458.65        2500.00        3104.91     
  1456.14        2500.00        3108.03     
  1453.63        2500.00        3111.53     
  1451.13        2500.00        3114.76     
  1448.62        2500.00        3118.12     
  1446.12        2500.00        3121.50     
  1443.61        2500.00        3124.80     
  1441.10        2500.00        3146.71     
  1438.60        2500.00        3210.96     
  1436.09        2500.00        3211.11     
  1433.58        2500.00        3211.30     
  1431.08        2500.00        3211.49     
  1428.57        2500.00        3211.65     
  1426.07        2500.00        3211.82     
  1423.56        2500.00        3211.97     
  1421.05        2500.00        3212.16     
  1418.55        2500.00        3212.35     
  1416.04        2500.00        3212.43     
  1413.53        2500.00        3212.61     
  1411.03        2500.00        3212.78     
  1408.52        2500.00        3212.89     
  1406.02        2500.00        3212.97     
  1403.51        2500.00        3213.11     
  1401.00        2500.00        3213.18     
  1398.50        2500.00        3213.29     
  1395.99        2500.00        3213.35     
  1393.48        2500.00        3213.42     
  1390.98        2500.00        3213.46     
  1388.47        2500.00        3213.50     
  1385.96        2500.00        3213.52     
  1383.46        2500.00        3213.55     
  1380.95        2500.00        3213.52     
  1378.45        2500.00        3213.44     
  1375.94        2500.00        3213.41     
  1373.43        2500.00        3213.36     
  1370.93        2500.00        3213.27     
  1368.42        2500.00        3213.21     
  1365.91        2500.00        3213.02     
  1363.41        2500.00        3212.92     
  1360.90        2500.00        3212.72     
  1358.40        2500.00        3212.54     
  1355.89        2500.00        3212.33     
  1353.38        2500.00        3212.07     
  1350.88        2500.00        3211.77     
  1348.37        2500.00        3211.51     
  1345.86        2500.00        3211.12     
  1343.36        2500.00        3210.76     
  1340.85        2500.00        3210.47     
  1338.35        2500.00        3210.01     
  1335.84        2500.00        3209.49     
  1333.33        2500.00        3209.00     
  1330.83        2500.00        3208.47     
  1328.32        2500.00        3207.92     
  1325.81        2500.00        3207.35     
  1323.31        2500.00        3206.70     
  1320.80        2500.00        3205.96     
  1318.30        2500.00        3205.29     
  1315.79        2500.00        3204.55     
  1313.28        2500.00        2807.69     
  1310.78        2500.00        2800.38     
  1308.27        2500.00        2800.19     
  1305.76        2500.00        2799.96     
  1303.26        2500.00        2799.51     
  1300.75        2500.00        2801.27     
  1298.25        2500.00        2795.59     
  1295.74        2500.00        2797.34     
  1293.23        2500.00        2805.12     
  1290.73        2500.00        2803.12     
  1288.22        2500.00        2802.15     
  1285.71        2500.00        2808.07     
  1283.21        2500.00        2771.39     
  1280.70        2500.00        2808.98     
  1278.20        2500.00        2780.27     
  1275.69        2500.00        2767.40     
  1273.18        2500.00        2775.06     
  1270.68        2500.00        2823.49     
  1268.17        2500.00        2813.38     
  1265.66        2500.00        2855.93     
  1263.16        2500.00        2807.32     
  1260.65        2500.00        2639.97     
  1258.15        2500.00        2990.49     
  1255.64        2500.00        2834.12     
  1253.13        2500.00        2597.76     
  1250.63        2500.00        3350.93     
  1248.12        2500.00        3373.67     
  1245.61        2500.00        2533.83     
  1243.11        2500.00        3343.68     
  1240.60        2500.00        3428.94     
  1238.10        2500.00        3190.11     
  1235.59        2500.00        2725.00     
  1233.08        2500.00        3222.42     
  1230.58        2500.00        2669.20     
  1228.07        2500.00        2668.55     
  1225.56        2500.00        2663.36     
  1223.06        2500.00        2663.48     
  1220.55        2500.00        2668.95     
  1218.05        2500.00        2663.70     
  1215.54        2500.00        2663.81     
  1213.03        2500.00        2663.92     
  1210.53        2500.00        2664.03     
  1208.02        2500.00        2664.15     
  1205.51        2500.00        2664.26     
  1203.01        2500.00        2664.38     
  1200.50        2500.00        2664.49     
  1197.99        2500.00        2661.93     
  1195.49        2500.00        2664.71     
  1192.98        2500.00        2662.19     
  1190.48        2500.00        2662.31     
  1187.97        2500.00        2662.43     
  1185.46        2500.00        2662.54     
  1182.96        2500.00        2662.66     
  1180.45        2500.00        2663.83     
  1177.94        2500.00        2663.95     
  1175.44        2500.00        2664.08     
  1172.93        2500.00        2664.18     
  1170.43        2500.00        2664.34     
  1167.92        2500.00        2664.46     
  1165.41        2500.00        2664.59     
  1162.91        2500.00        2664.69     
  1160.40        2500.00        2664.83     
  1157.89        2500.00        2664.90     
  1155.39        2500.00        2665.06     
  1152.88        2500.00        2672.32     
  1150.38        2500.00        2665.35     
  1147.87        2500.00        2670.08     
  1145.36        2500.00        2670.40     
  1142.86        2500.00        2670.15     
  1140.35        2500.00        2672.94     
  1137.84        2500.00        2666.02     
  1135.34        2500.00        2666.09     
  1132.83        2500.00        2670.71     
  1130.33        2500.00        2666.33     
  1127.82        2500.00        2666.46     
  1125.31        2500.00        2670.85     
  1122.81        2500.00        2671.06     
  1120.30        2500.00        2666.82     
  1117.79        2500.00        2666.91     
  1115.29        2500.00        2667.03     
  1112.78        2500.00        2667.14     
  1110.28        2500.00        2667.28     
  1107.77        2500.00        2667.42     
  1105.26        2500.00        2667.55     
  1102.76        2500.00        2667.67     
  1100.25        2500.00        2667.78     
  1097.74        2500.00        2667.93     
  1095.24        2500.00        2668.03     
  1092.73        2500.00        2668.16     
  1090.23        2500.00        2668.28     
  1087.72        2500.00        2668.40     
  1085.21        2500.00        2668.53     
  1082.71        2500.00        2668.65     
  1080.20        2500.00        2668.75     
  1077.69        2500.00        2668.90     
  1075.19        2500.00        2669.03     
  1072.68        2500.00        2669.15     
  1070.18        2500.00        2669.31     
  1067.67        2500.00        2669.39     
  1065.16        2500.00        2669.50     
  1062.66        2500.00        2669.64     
  1060.15        2500.00        2669.76     
  1057.64        2500.00        2669.88     
  1055.14        2500.00        2670.00     
  1052.63        2500.00        2670.11     
  1050.13        2500.00        2670.31     
  1047.62        2500.00        2670.37     
  1045.11        2500.00        2670.56     
  1042.61        2500.00        2670.64     
  1040.10        2500.00        2670.76     
  1037.59        2500.00        2670.96     
  1035.09        2500.00        2671.06     
  1032.58        2500.00        2671.24     
  1030.08        2500.00        2671.33     
  1027.57        2500.00        2671.43     
  1025.06        2500.00        2671.48     
  1022.56        2500.00        2671.67     
  1020.05        2500.00        2671.76     
  1017.54        2500.00        2671.96     
  1015.04        2500.00        2672.11     
  1012.53        2500.00        2672.27     
  1010.03        2500.00        2672.40     
  1007.52        2500.00        2672.49     
  1005.01        2500.00        2672.46     
  1002.51        2500.00        2672.64     
  1000.00        2500.00        2672.72     
