|6.6.6
Archiving\03_Data\eqfracLP/QFM_m2/YM20/YM20_6.tab                       
           1
T(K)    
  0.000000000000000E+000
  0.000000000000000E+000
           0
           3
T(K)           P(bar)         rho,kg/m3     
  1544.87        500.000        3238.90     
  1543.50        500.000        3232.18     
  1542.14        500.000        3228.35     
  1540.77        500.000        3228.89     
  1539.41        500.000        3242.20     
  1538.04        500.000        3229.68     
  1536.68        500.000        3230.55     
  1535.31        500.000        3230.93     
  1533.95        500.000        3231.71     
  1532.58        500.000        3230.32     
  1531.21        500.000        3231.52     
  1529.85        500.000        3235.47     
  1528.48        500.000        3233.70     
  1527.12        500.000        3235.38     
  1525.75        500.000        2764.73     
  1524.39        500.000        3236.42     
  1523.02        500.000        3236.63     
  1521.65        500.000        3238.19     
  1520.29        500.000        3237.04     
  1518.92        500.000        3237.12     
  1517.56        500.000        3238.28     
  1516.19        500.000        3237.47     
  1514.83        500.000        3237.62     
  1513.46        500.000        3237.96     
  1512.10        500.000        3238.90     
  1510.73        500.000        3238.31     
  1509.36        500.000        3239.13     
  1508.00        500.000        3239.23     
  1506.63        500.000        3238.55     
  1505.27        500.000        3240.21     
  1503.90        500.000        3242.89     
  1502.54        500.000        3239.12     
  1501.17        500.000        3239.74     
  1499.81        500.000        3259.62     
  1498.44        500.000        3239.62     
  1497.07        500.000        3239.80     
  1495.71        500.000        3240.11     
  1494.34        500.000        3240.14     
  1492.98        500.000        3242.27     
  1491.61        500.000        3240.93     
  1490.25        500.000        3241.71     
  1488.88        500.000        3241.45     
  1487.52        500.000        3242.34     
  1486.15        500.000        3242.03     
  1484.78        500.000        3242.99     
  1483.42        500.000        3243.24     
  1482.05        500.000        3244.00     
  1480.69        500.000        3243.99     
  1479.32        500.000        3244.35     
  1477.96        500.000        3244.51     
  1476.59        500.000        3245.36     
  1475.22        500.000        3245.64     
  1473.86        500.000        3246.37     
  1472.49        500.000        3245.98     
  1471.13        500.000        3246.63     
  1469.76        500.000        3247.54     
  1468.40        500.000        3247.47     
  1467.03        500.000        3247.17     
  1465.67        500.000        3248.42     
  1464.30        500.000        3233.77     
  1462.93        500.000        3238.82     
  1461.57        500.000        3235.12     
  1460.20        500.000        3235.21     
  1458.84        500.000        3236.26     
  1457.47        500.000        3236.95     
  1456.11        500.000        3237.73     
  1454.74        500.000        3231.06     
  1453.38        500.000        3229.29     
  1452.01        500.000        3230.27     
  1450.64        500.000        3276.77     
  1449.28        500.000        3232.41     
  1447.91        500.000        3232.38     
  1446.55        500.000        3233.44     
  1445.18        500.000        3234.36     
  1443.82        500.000        3235.31     
  1442.45        500.000        3236.39     
  1441.09        500.000        3236.97     
  1439.72        500.000        3238.06     
  1438.35        500.000        3239.31     
  1436.99        500.000        3239.74     
  1435.62        500.000        3240.65     
  1434.26        500.000        3241.50     
  1432.89        500.000        3242.41     
  1431.53        500.000        3243.50     
  1430.16        500.000        3244.38     
  1428.79        500.000        3245.04     
  1427.43        500.000        3246.08     
  1426.06        500.000        3112.23     
  1424.70        500.000        3078.12     
  1423.33        500.000        3078.82     
  1421.97        500.000        3080.00     
  1420.60        500.000        3080.97     
  1419.24        500.000        3082.02     
  1417.87        500.000        3082.94     
  1416.50        500.000        3084.02     
  1415.14        500.000        3084.87     
  1413.77        500.000        3085.70     
  1412.41        500.000        3086.82     
  1411.04        500.000        3087.81     
  1409.68        500.000        3088.92     
  1408.31        500.000        3089.69     
  1406.95        500.000        3090.78     
  1405.58        500.000        3091.58     
  1404.21        500.000        3092.45     
  1402.85        500.000        3093.68     
  1401.48        500.000        3094.68     
  1400.12        500.000        3095.71     
  1398.75        500.000        3096.58     
  1397.39        500.000        3097.59     
  1396.02        500.000        3098.64     
  1394.66        500.000        3099.49     
  1393.29        500.000        3100.47     
  1391.92        500.000        3101.48     
  1390.56        500.000        3102.41     
  1389.19        500.000        3103.42     
  1387.83        500.000        3104.28     
  1386.46        500.000        3105.46     
  1385.10        500.000        3106.28     
  1383.73        500.000        3107.37     
  1382.36        500.000        3108.18     
  1381.00        500.000        3109.38     
  1379.63        500.000        3086.49     
  1378.27        500.000        3122.11     
  1376.90        500.000        3112.16     
  1375.54        500.000        3113.10     
  1374.17        500.000        3114.06     
  1372.81        500.000        3115.10     
  1371.44        500.000        3116.40     
  1370.07        500.000        3096.29     
  1368.71        500.000        3136.41     
  1367.34        500.000        3132.08     
  1365.98        500.000        3119.96     
  1364.61        500.000        3120.98     
  1363.25        500.000        3121.85     
  1361.88        500.000        3123.02     
  1360.52        500.000        3123.82     
  1359.15        500.000        3124.82     
  1357.78        500.000        3138.24     
  1356.42        500.000        3132.75     
  1355.05        500.000        3127.70     
  1353.69        500.000        3128.93     
  1352.32        500.000        3140.19     
  1350.96        500.000        3141.45     
  1349.59        500.000        3142.78     
  1348.23        500.000        3143.39     
  1346.86        500.000        3145.83     
  1345.49        500.000        3146.44     
  1344.13        500.000        3147.64     
  1342.76        500.000        3148.88     
  1341.40        500.000        3150.35     
  1340.03        500.000        3151.29     
  1338.67        500.000        3152.59     
  1337.30        500.000        3153.76     
  1335.93        500.000        3154.74     
  1334.57        500.000        3156.15     
  1333.20        500.000        3157.31     
  1331.84        500.000        3158.50     
  1330.47        500.000        3159.77     
  1329.11        500.000        3161.03     
  1327.74        500.000        3162.21     
  1326.38        500.000        3163.33     
  1325.01        500.000        3164.65     
  1323.64        500.000        3165.73     
  1322.28        500.000        3166.84     
  1320.91        500.000        3167.71     
  1319.55        500.000        3169.21     
  1318.18        500.000        3170.25     
  1316.82        500.000        3171.41     
  1315.45        500.000        3172.74     
  1314.09        500.000        3173.75     
  1312.72        500.000        3174.93     
  1311.35        500.000        3175.94     
  1309.99        500.000        3176.96     
  1308.62        500.000        3178.14     
  1307.26        500.000        3179.08     
  1305.89        500.000        3180.41     
  1304.53        500.000        3181.42     
  1303.16        500.000        3182.35     
  1301.80        500.000        3183.33     
  1300.43        500.000        3184.56     
  1299.06        500.000        3185.24     
  1297.70        500.000        3186.54     
  1296.33        500.000        3187.28     
  1294.97        500.000        3188.14     
  1293.60        500.000        3189.16     
  1292.24        500.000        2800.92     
  1290.87        500.000        2754.65     
  1289.50        500.000        2757.84     
  1288.14        500.000        2760.81     
  1286.77        500.000        2763.94     
  1285.41        500.000        2766.88     
  1284.04        500.000        2769.70     
  1282.68        500.000        2772.41     
  1281.31        500.000        2775.06     
  1279.95        500.000        2777.64     
  1278.58        500.000        2780.10     
  1277.21        500.000        2782.47     
  1275.85        500.000        2784.89     
  1274.48        500.000        2787.19     
  1273.12        500.000        2789.40     
  1271.75        500.000        2791.57     
  1270.39        500.000        2793.62     
  1269.02        500.000        2796.11     
  1267.66        500.000        2797.57     
  1266.29        500.000        2799.66     
  1264.92        500.000        2801.41     
  1263.56        500.000        2803.40     
  1262.19        500.000        2805.34     
  1260.83        500.000        2806.96     
  1259.46        500.000        2808.74     
  1258.10        500.000        2810.48     
  1256.73        500.000        2812.68     
  1255.37        500.000        2813.73     
  1254.00        500.000        2815.15     
  1252.63        500.000        2816.76     
  1251.27        500.000        2818.00     
  1249.90        500.000        2819.51     
  1248.54        500.000        2820.66     
  1247.17        500.000        2822.08     
  1245.81        500.000        2823.36     
  1244.44        500.000        2824.30     
  1243.07        500.000        2822.98     
  1241.71        500.000        2878.32     
  1240.34        500.000        2829.38     
  1238.98        500.000        2805.59     
  1237.61        500.000        2856.84     
  1236.25        500.000        2823.82     
  1234.88        500.000        2802.69     
  1233.52        500.000        2753.32     
  1232.15        500.000        2924.40     
  1230.78        500.000        2920.66     
  1229.42        500.000        2793.73     
  1228.05        500.000        2718.54     
  1226.69        500.000        3417.19     
  1225.32        500.000        2930.32     
  1223.96        500.000        2840.64     
  1222.59        500.000        2759.67     
  1221.23        500.000        2883.23     
  1219.86        500.000        2887.86     
  1218.49        500.000        2834.70     
  1217.13        500.000        2847.88     
  1215.76        500.000        2773.03     
  1214.40        500.000        2785.27     
  1213.03        500.000        2899.14     
  1211.67        500.000        2712.40     
  1210.30        500.000        3028.99     
  1208.94        500.000        2804.94     
  1207.57        500.000        2960.25     
  1206.20        500.000        2830.82     
  1204.84        500.000        2596.35     
  1203.47        500.000        3210.89     
  1202.11        500.000        2823.54     
  1200.74        500.000        3807.66     
  1199.38        500.000        2854.44     
  1198.01        500.000        2868.79     
  1196.64        500.000        2858.48     
  1195.28        500.000        2799.69     
  1193.91        500.000        2810.89     
  1192.55        500.000        2669.04     
  1191.18        500.000        2656.89     
  1189.82        500.000        2639.00     
  1188.45        500.000        2638.99     
  1187.09        500.000        2634.30     
  1185.72        500.000        2634.36     
  1184.35        500.000        2634.42     
  1182.99        500.000        2634.48     
  1181.62        500.000        2634.58     
  1180.26        500.000        2634.61     
  1178.89        500.000        2631.45     
  1177.53        500.000        2631.49     
  1176.16        500.000        2634.77     
  1174.80        500.000        2631.56     
  1173.43        500.000        2631.60     
  1172.06        500.000        2631.64     
  1170.70        500.000        2631.68     
  1169.33        500.000        2631.71     
  1167.97        500.000        2631.75     
  1166.60        500.000        2631.83     
  1165.24        500.000        2631.88     
  1163.87        500.000        2631.87     
  1162.51        500.000        2631.91     
  1161.14        500.000        2631.96     
  1159.77        500.000        2632.00     
  1158.41        500.000        2632.04     
  1157.04        500.000        2632.08     
  1155.68        500.000        2632.12     
  1154.31        500.000        2632.16     
  1152.95        500.000        2632.21     
  1151.58        500.000        2632.25     
  1150.21        500.000        2632.30     
  1148.85        500.000        2632.33     
  1147.48        500.000        2632.36     
  1146.12        500.000        2632.41     
  1144.75        500.000        2632.46     
  1143.39        500.000        2632.51     
  1142.02        500.000        2632.56     
  1140.66        500.000        2632.59     
  1139.29        500.000        2632.63     
  1137.92        500.000        2632.69     
  1136.56        500.000        2632.74     
  1135.19        500.000        2632.78     
  1133.83        500.000        2632.83     
  1132.46        500.000        2632.87     
  1131.10        500.000        2632.92     
  1129.73        500.000        2632.97     
  1128.37        500.000        2633.01     
  1127.00        500.000        2633.06     
  1125.63        500.000        2633.09     
  1124.27        500.000        2633.14     
  1122.90        500.000        2633.49     
  1121.54        500.000        2633.51     
  1120.17        500.000        2633.56     
  1118.81        500.000        2633.58     
  1117.44        500.000        2633.60     
  1116.08        500.000        2633.63     
  1114.71        500.000        2633.65     
  1113.34        500.000        2633.68     
  1111.98        500.000        2633.71     
  1110.61        500.000        2633.73     
  1109.25        500.000        2633.76     
  1107.88        500.000        2633.80     
  1106.52        500.000        2633.83     
  1105.15        500.000        2633.86     
  1103.78        500.000        2633.89     
  1102.42        500.000        2633.92     
  1101.05        500.000        2633.95     
  1099.69        500.000        2633.52     
  1098.32        500.000        2633.57     
  1096.96        500.000        2633.61     
  1095.59        500.000        2633.66     
  1094.23        500.000        2633.71     
  1092.86        500.000        2633.76     
  1091.49        500.000        2633.81     
  1090.13        500.000        2633.86     
  1088.76        500.000        2633.93     
  1087.40        500.000        2633.96     
  1086.03        500.000        2634.01     
  1084.67        500.000        2634.05     
  1083.30        500.000        2634.10     
  1081.94        500.000        2634.16     
  1080.57        500.000        2634.21     
  1079.20        500.000        2634.28     
  1077.84        500.000        2634.31     
  1076.47        500.000        2634.36     
  1075.11        500.000        2634.41     
  1073.74        500.000        2634.46     
  1072.38        500.000        2634.51     
  1071.01        500.000        2634.58     
  1069.65        500.000        2634.63     
  1068.28        500.000        2634.66     
  1066.91        500.000        2634.70     
  1065.55        500.000        2634.75     
  1064.18        500.000        2634.80     
  1062.82        500.000        2634.85     
  1061.45        500.000        2634.90     
  1060.09        500.000        2634.94     
  1058.72        500.000        2635.00     
  1057.35        500.000        2635.04     
  1055.99        500.000        2635.09     
  1054.62        500.000        2635.36     
  1053.26        500.000        2635.19     
  1051.89        500.000        2635.45     
  1050.53        500.000        2635.49     
  1049.16        500.000        2635.54     
  1047.80        500.000        2635.58     
  1046.43        500.000        2635.63     
  1045.06        500.000        2635.67     
  1043.70        500.000        2635.72     
  1042.33        500.000        2635.77     
  1040.97        500.000        2635.81     
  1039.60        500.000        2635.86     
  1038.24        500.000        2635.73     
  1036.87        500.000        2635.95     
  1035.51        500.000        2635.84     
  1034.14        500.000        2635.89     
  1032.77        500.000        2635.94     
  1031.41        500.000        2635.99     
  1030.04        500.000        2636.04     
  1028.68        500.000        2636.09     
  1027.31        500.000        2636.18     
  1025.95        500.000        2636.19     
  1024.58        500.000        2636.23     
  1023.22        500.000        2636.29     
  1021.85        500.000        2636.33     
  1020.48        500.000        2636.38     
  1019.12        500.000        2636.44     
  1017.75        500.000        2636.51     
  1016.39        500.000        2636.53     
  1015.02        500.000        2636.62     
  1013.66        500.000        2636.67     
  1012.29        500.000        2636.72     
  1010.92        500.000        2636.77     
  1009.56        500.000        2636.82     
  1008.19        500.000        2636.87     
  1006.83        500.000        2636.92     
  1005.46        500.000        2636.97     
  1004.10        500.000        2636.99     
  1002.73        500.000        2637.11     
  1001.37        500.000        2637.09     
  1000.00        500.000        2637.15     
