|6.6.6
Archiving\03_Data\fracLP/QFM_m2.5/EETA/EETA_6.tab                         
           1
T(K)    
  0.000000000000000E+000
  0.000000000000000E+000
           0
           3
T(K)           P(bar)         rho,kg/m3     
  2000.00        500.000        3616.67     
  1997.49        500.000        3617.05     
  1994.99        500.000        3617.43     
  1992.48        500.000        3617.81     
  1989.97        500.000        3618.20     
  1987.47        500.000        3618.58     
  1984.96        500.000        3618.96     
  1982.46        500.000        3619.34     
  1979.95        500.000        3619.72     
  1977.44        500.000        3620.10     
  1974.94        500.000        3620.48     
  1972.43        500.000        3620.86     
  1969.92        500.000        3621.24     
  1967.42        500.000        3621.62     
  1964.91        500.000        3622.00     
  1962.41        500.000        3622.38     
  1959.90        500.000        3622.75     
  1957.39        500.000        3623.13     
  1954.89        500.000        3623.51     
  1952.38        500.000        3623.89     
  1949.87        500.000        3624.27     
  1947.37        500.000        3624.65     
  1944.86        500.000        3625.03     
  1942.36        500.000        3625.40     
  1939.85        500.000        3625.78     
  1937.34        500.000        3626.16     
  1934.84        500.000        3626.54     
  1932.33        500.000        3626.92     
  1929.82        500.000        3627.29     
  1927.32        500.000        3627.67     
  1924.81        500.000        3628.05     
  1922.31        500.000        3628.43     
  1919.80        500.000        3628.80     
  1917.29        500.000        3629.18     
  1914.79        500.000        3629.56     
  1912.28        500.000        3629.93     
  1909.77        500.000        3630.31     
  1907.27        500.000        3630.69     
  1904.76        500.000        3631.06     
  1902.26        500.000        3631.44     
  1899.75        500.000        3631.81     
  1897.24        500.000        3632.19     
  1894.74        500.000        3632.57     
  1892.23        500.000        3632.94     
  1889.72        500.000        3633.32     
  1887.22        500.000        3633.69     
  1884.71        500.000        3634.07     
  1882.21        500.000        3634.44     
  1879.70        500.000        3634.82     
  1877.19        500.000        3635.19     
  1874.69        500.000        3635.57     
  1872.18        500.000        3635.94     
  1869.67        500.000        3636.31     
  1867.17        500.000        3636.69     
  1864.66        500.000        3637.06     
  1862.16        500.000        3637.44     
  1859.65        500.000        3637.81     
  1857.14        500.000        3638.18     
  1854.64        500.000        3638.56     
  1852.13        500.000        3638.93     
  1849.62        500.000        3639.31     
  1847.12        500.000        3639.68     
  1844.61        500.000        3640.05     
  1842.11        500.000        3640.42     
  1839.60        500.000        3640.80     
  1837.09        500.000        3641.17     
  1834.59        500.000        3641.54     
  1832.08        500.000        3641.92     
  1829.57        500.000        3642.29     
  1827.07        500.000        3642.66     
  1824.56        500.000        3643.03     
  1822.06        500.000        3643.40     
  1819.55        500.000        3643.78     
  1817.04        500.000        3644.15     
  1814.54        500.000        3644.52     
  1812.03        500.000        3644.89     
  1809.52        500.000        3645.26     
  1807.02        500.000        3645.63     
  1804.51        500.000        3646.00     
  1802.01        500.000        3646.37     
  1799.50        500.000        3646.75     
  1796.99        500.000        3647.12     
  1794.49        500.000        3647.49     
  1791.98        500.000        3647.86     
  1789.47        500.000        3648.23     
  1786.97        500.000        3648.60     
  1784.46        500.000        3648.97     
  1781.95        500.000        3649.34     
  1779.45        500.000        3649.71     
  1776.94        500.000        3650.08     
  1774.44        500.000        3650.45     
  1771.93        500.000        3650.82     
  1769.42        500.000        3651.18     
  1766.92        500.000        3651.55     
  1764.41        500.000        3651.92     
  1761.90        500.000        3652.29     
  1759.40        500.000        3652.66     
  1756.89        500.000        3653.03     
  1754.39        500.000        3653.40     
  1751.88        500.000        3653.77     
  1749.37        500.000        3654.13     
  1746.87        500.000        3654.50     
  1744.36        500.000        3654.87     
  1741.85        500.000        3655.24     
  1739.35        500.000        3655.61     
  1736.84        500.000        3655.97     
  1734.34        500.000        3656.34     
  1731.83        500.000        3656.71     
  1729.32        500.000        3657.08     
  1726.82        500.000        3657.44     
  1724.31        500.000        3657.81     
  1721.80        500.000        3658.18     
  1719.30        500.000        3658.54     
  1716.79        500.000        3658.91     
  1714.29        500.000        3659.28     
  1711.78        500.000        3659.64     
  1709.27        500.000        3660.01     
  1706.77        500.000        3660.38     
  1704.26        500.000        3660.74     
  1701.75        500.000        3661.11     
  1699.25        500.000        3661.47     
  1696.74        500.000        3661.84     
  1694.24        500.000        3662.20     
  1691.73        500.000        3662.57     
  1689.22        500.000        3662.94     
  1686.72        500.000        3663.30     
  1684.21        500.000        3663.67     
  1681.70        500.000        3664.03     
  1679.20        500.000        3664.40     
  1676.69        500.000        3664.76     
  1674.19        500.000        3665.12     
  1671.68        500.000        3665.49     
  1669.17        500.000        3665.85     
  1666.67        500.000        3666.22     
  1664.16        500.000        3666.58     
  1661.65        500.000        3666.95     
  1659.15        500.000        3667.31     
  1656.64        500.000        3667.67     
  1654.14        500.000        3668.04     
  1651.63        500.000        3668.40     
  1649.12        500.000        3668.76     
  1646.62        500.000        3669.13     
  1644.11        500.000        3669.49     
  1641.60        500.000        3676.98     
  1639.10        500.000        3678.79     
  1636.59        500.000        3679.08     
  1634.09        500.000        3679.39     
  1631.58        500.000        3681.14     
  1629.07        500.000        3678.49     
  1626.57        500.000        3669.92     
  1624.06        500.000        4509.00     
  1621.55        500.000        4510.17     
  1619.05        500.000        4509.53     
  1616.54        500.000        4511.09     
  1614.04        500.000        4510.40     
  1611.53        500.000        3474.86     
  1609.02        500.000        3401.49     
  1606.52        500.000        3403.26     
  1604.01        500.000        3404.70     
  1601.50        500.000        3407.29     
  1599.00        500.000        3409.18     
  1596.49        500.000        3413.52     
  1593.98        500.000        3412.86     
  1591.48        500.000        3414.12     
  1588.97        500.000        3416.13     
  1586.47        500.000        3417.63     
  1583.96        500.000        3420.37     
  1581.45        500.000        3423.27     
  1578.95        500.000        3423.43     
  1576.44        500.000        3425.79     
  1573.93        500.000        3428.19     
  1571.43        500.000        3427.34     
  1568.92        500.000        3433.83     
  1566.42        500.000        3432.40     
  1563.91        500.000        3434.47     
  1561.40        500.000        3436.20     
  1558.90        500.000        3439.57     
  1556.39        500.000        3440.39     
  1553.88        500.000        3442.23     
  1551.38        500.000        3443.86     
  1548.87        500.000        3446.32     
  1546.37        500.000        3448.10     
  1543.86        500.000        3450.23     
  1541.35        500.000        3451.14     
  1538.85        500.000        3453.76     
  1536.34        500.000        3326.39     
  1533.83        500.000        3289.30     
  1531.33        500.000        3292.22     
  1528.82        500.000        3293.16     
  1526.32        500.000        3294.60     
  1523.81        500.000        3294.79     
  1521.30        500.000        3296.09     
  1518.80        500.000        3308.45     
  1516.29        500.000        3298.00     
  1513.78        500.000        3300.16     
  1511.28        500.000        3300.91     
  1508.77        500.000        3301.55     
  1506.27        500.000        3303.11     
  1503.76        500.000        3304.16     
  1501.25        500.000        3308.68     
  1498.75        500.000        3306.39     
  1496.24        500.000        3316.32     
  1493.73        500.000        3294.02     
  1491.23        500.000        3295.43     
  1488.72        500.000        3297.55     
  1486.22        500.000        3298.82     
  1483.71        500.000        3300.28     
  1481.20        500.000        3301.94     
  1478.70        500.000        3303.05     
  1476.19        500.000        3305.36     
  1473.68        500.000        3306.61     
  1471.18        500.000        3307.66     
  1468.67        500.000        3309.12     
  1466.17        500.000        3296.80     
  1463.66        500.000        3289.92     
  1461.15        500.000        3292.33     
  1458.65        500.000        3294.85     
  1456.14        500.000        3297.18     
  1453.63        500.000        3299.76     
  1451.13        500.000        3302.41     
  1448.62        500.000        3306.80     
  1446.12        500.000        3309.18     
  1443.61        500.000        3311.39     
  1441.10        500.000        3314.06     
  1438.60        500.000        3316.28     
  1436.09        500.000        3318.50     
  1433.58        500.000        3321.00     
  1431.08        500.000        3323.55     
  1428.57        500.000        3325.88     
  1426.07        500.000        3328.83     
  1423.56        500.000        3330.82     
  1421.05        500.000        3333.05     
  1418.55        500.000        3335.69     
  1416.04        500.000        3338.20     
  1413.53        500.000        3340.56     
  1411.03        500.000        3342.94     
  1408.52        500.000        3345.82     
  1406.02        500.000        3169.99     
  1403.51        500.000        3156.26     
  1401.00        500.000        3159.33     
  1398.50        500.000        3162.64     
  1395.99        500.000        3165.77     
  1393.48        500.000        3168.94     
  1390.98        500.000        3172.40     
  1388.47        500.000        3175.52     
  1385.96        500.000        3178.15     
  1383.46        500.000        3182.27     
  1380.95        500.000        3185.37     
  1378.45        500.000        3188.86     
  1375.94        500.000        3191.72     
  1373.43        500.000        3195.57     
  1370.93        500.000        3198.66     
  1368.42        500.000        3202.02     
  1365.91        500.000        3205.71     
  1363.41        500.000        3208.93     
  1360.90        500.000        3212.48     
  1358.40        500.000        3216.03     
  1355.89        500.000        3219.46     
  1353.38        500.000        3222.87     
  1350.88        500.000        3226.13     
  1348.37        500.000        3229.83     
  1345.86        500.000        3257.99     
  1343.36        500.000        3276.03     
  1340.85        500.000        3279.48     
  1338.35        500.000        3283.50     
  1335.84        500.000        3285.79     
  1333.33        500.000        3289.29     
  1330.83        500.000        3291.87     
  1328.32        500.000        3295.72     
  1325.81        500.000        3298.55     
  1323.31        500.000        3302.21     
  1320.80        500.000        3304.86     
  1318.30        500.000        3307.36     
  1315.79        500.000        3309.84     
  1313.28        500.000        3311.92     
  1310.78        500.000        3341.71     
  1308.27        500.000        3357.29     
  1305.76        500.000        3359.02     
  1303.26        500.000        3361.32     
  1300.75        500.000        3363.52     
  1298.25        500.000        3365.51     
  1295.74        500.000        3367.28     
  1293.23        500.000        3368.76     
  1290.73        500.000        3370.41     
  1288.22        500.000        3371.71     
  1285.71        500.000        3372.99     
  1283.21        500.000        3374.51     
  1280.70        500.000        3375.58     
  1278.20        500.000        3376.67     
  1275.69        500.000        3377.47     
  1273.18        500.000        3378.93     
  1270.68        500.000        3379.40     
  1268.17        500.000        3380.07     
  1265.66        500.000        2889.95     
  1263.16        500.000        2863.21     
  1260.65        500.000        2865.79     
  1258.15        500.000        2868.36     
  1255.64        500.000        2870.13     
  1253.13        500.000        2872.09     
  1250.63        500.000        2873.36     
  1248.12        500.000        2875.04     
  1245.61        500.000        2875.70     
  1243.11        500.000        2876.47     
  1240.60        500.000        2876.97     
  1238.10        500.000        2878.22     
  1235.59        500.000        2877.62     
  1233.08        500.000        2877.44     
  1230.58        500.000        2877.04     
  1228.07        500.000        2877.08     
  1225.56        500.000        2876.97     
  1223.06        500.000        2876.72     
  1220.55        500.000        2877.78     
  1218.05        500.000        2876.73     
  1215.54        500.000        2876.63     
  1213.03        500.000        2707.11     
  1210.53        500.000        2689.67     
  1208.02        500.000        2689.45     
  1205.51        500.000        2686.13     
  1203.01        500.000        2684.16     
  1200.50        500.000        2678.85     
  1197.99        500.000        2699.63     
  1195.49        500.000        2666.05     
  1192.98        500.000        2666.75     
  1190.48        500.000        2652.95     
  1187.97        500.000        2632.71     
  1185.46        500.000        2632.77     
  1182.96        500.000        2632.84     
  1180.45        500.000        2633.80     
  1177.94        500.000        2635.82     
  1175.44        500.000        2633.12     
  1172.93        500.000        2633.14     
  1170.43        500.000        2636.18     
  1167.92        500.000        2636.27     
  1165.41        500.000        2633.31     
  1162.91        500.000        2636.51     
  1160.40        500.000        2636.65     
  1157.89        500.000        2636.74     
  1155.39        500.000        2636.85     
  1152.88        500.000        2636.89     
  1150.38        500.000        2633.76     
  1147.87        500.000        2637.09     
  1145.36        500.000        2637.22     
  1142.86        500.000        2637.33     
  1140.35        500.000        2637.45     
  1137.84        500.000        2637.56     
  1135.34        500.000        2637.67     
  1132.83        500.000        2634.26     
  1130.33        500.000        2637.90     
  1127.82        500.000        2638.03     
  1125.31        500.000        2638.14     
  1122.81        500.000        2638.25     
  1120.30        500.000        2638.26     
  1117.79        500.000        2637.70     
  1115.29        500.000        2636.17     
  1112.78        500.000        2634.80     
  1110.28        500.000        2634.88     
  1107.77        500.000        2634.96     
  1105.26        500.000        2635.04     
  1102.76        500.000        2635.94     
  1100.25        500.000        2635.96     
  1097.74        500.000        2635.29     
  1095.24        500.000        2635.37     
  1092.73        500.000        2635.45     
  1090.23        500.000        2635.53     
  1087.72        500.000        2635.62     
  1085.21        500.000        2634.22     
  1082.71        500.000        2635.78     
  1080.20        500.000        2635.87     
  1077.69        500.000        2634.55     
  1075.19        500.000        2634.65     
  1072.68        500.000        2636.12     
  1070.18        500.000        2636.21     
  1067.67        500.000        2636.29     
  1065.16        500.000        2635.08     
  1062.66        500.000        2635.19     
  1060.15        500.000        2635.29     
  1057.64        500.000        2635.40     
  1055.14        500.000        2635.51     
  1052.63        500.000        2635.61     
  1050.13        500.000        2635.72     
  1047.62        500.000        2635.83     
  1045.11        500.000        2635.93     
  1042.61        500.000        2636.04     
  1040.10        500.000        2636.15     
  1037.59        500.000        2636.25     
  1035.09        500.000        2636.36     
  1032.58        500.000        2636.46     
  1030.08        500.000        2636.57     
  1027.57        500.000        2636.68     
  1025.06        500.000        2636.78     
  1022.56        500.000        2636.89     
  1020.05        500.000        2636.99     
  1017.54        500.000        2637.10     
  1015.04        500.000        2637.21     
  1012.53        500.000        2637.31     
  1010.03        500.000        2637.42     
  1007.52        500.000        2637.52     
  1005.01        500.000        2637.63     
  1002.51        500.000        2638.57     
  1000.00        500.000        2638.66     
