|6.6.6
Archiving\03_Data\fracLP/QFM_m2/LAR/LAR_6.tab                             
           1
T(K)    
  0.000000000000000E+000
  0.000000000000000E+000
           0
           3
T(K)           P(bar)         rho,kg/m3     
  2000.00        500.000        3552.33     
  1997.49        500.000        3552.70     
  1994.99        500.000        3553.07     
  1992.48        500.000        3553.44     
  1989.97        500.000        3553.81     
  1987.47        500.000        3554.18     
  1984.96        500.000        3554.55     
  1982.46        500.000        3554.92     
  1979.95        500.000        3555.29     
  1977.44        500.000        3555.66     
  1974.94        500.000        3556.03     
  1972.43        500.000        3556.40     
  1969.92        500.000        3556.77     
  1967.42        500.000        3557.14     
  1964.91        500.000        3557.50     
  1962.41        500.000        3557.87     
  1959.90        500.000        3558.24     
  1957.39        500.000        3558.61     
  1954.89        500.000        3558.98     
  1952.38        500.000        3559.35     
  1949.87        500.000        3559.72     
  1947.37        500.000        3560.08     
  1944.86        500.000        3560.45     
  1942.36        500.000        3560.82     
  1939.85        500.000        3561.19     
  1937.34        500.000        3561.56     
  1934.84        500.000        3561.92     
  1932.33        500.000        3562.29     
  1929.82        500.000        3562.66     
  1927.32        500.000        3563.03     
  1924.81        500.000        3563.39     
  1922.31        500.000        3563.76     
  1919.80        500.000        3564.13     
  1917.29        500.000        3564.49     
  1914.79        500.000        3564.86     
  1912.28        500.000        3565.23     
  1909.77        500.000        3565.59     
  1907.27        500.000        3565.96     
  1904.76        500.000        3566.32     
  1902.26        500.000        3566.69     
  1899.75        500.000        3567.06     
  1897.24        500.000        3567.42     
  1894.74        500.000        3567.79     
  1892.23        500.000        3568.15     
  1889.72        500.000        3568.52     
  1887.22        500.000        3568.88     
  1884.71        500.000        3569.25     
  1882.21        500.000        3569.61     
  1879.70        500.000        3569.98     
  1877.19        500.000        3570.34     
  1874.69        500.000        3570.71     
  1872.18        500.000        3571.07     
  1869.67        500.000        3571.44     
  1867.17        500.000        3571.80     
  1864.66        500.000        3572.16     
  1862.16        500.000        3572.53     
  1859.65        500.000        3572.89     
  1857.14        500.000        3573.25     
  1854.64        500.000        3573.62     
  1852.13        500.000        3573.98     
  1849.62        500.000        3574.35     
  1847.12        500.000        3574.71     
  1844.61        500.000        3575.07     
  1842.11        500.000        3575.43     
  1839.60        500.000        3575.80     
  1837.09        500.000        3576.16     
  1834.59        500.000        3576.52     
  1832.08        500.000        3576.88     
  1829.57        500.000        3577.25     
  1827.07        500.000        3577.61     
  1824.56        500.000        3577.97     
  1822.06        500.000        3578.33     
  1819.55        500.000        3578.70     
  1817.04        500.000        3579.06     
  1814.54        500.000        3579.42     
  1812.03        500.000        3579.78     
  1809.52        500.000        3580.14     
  1807.02        500.000        3580.50     
  1804.51        500.000        3580.86     
  1802.01        500.000        3581.22     
  1799.50        500.000        3581.59     
  1796.99        500.000        3581.95     
  1794.49        500.000        3582.31     
  1791.98        500.000        3582.67     
  1789.47        500.000        3583.03     
  1786.97        500.000        3583.39     
  1784.46        500.000        3583.75     
  1781.95        500.000        3584.11     
  1779.45        500.000        3584.47     
  1776.94        500.000        3584.83     
  1774.44        500.000        3585.19     
  1771.93        500.000        3585.55     
  1769.42        500.000        3585.91     
  1766.92        500.000        3586.27     
  1764.41        500.000        3586.63     
  1761.90        500.000        3586.98     
  1759.40        500.000        3587.34     
  1756.89        500.000        3587.70     
  1754.39        500.000        3588.06     
  1751.88        500.000        3588.42     
  1749.37        500.000        3588.78     
  1746.87        500.000        3589.14     
  1744.36        500.000        3589.49     
  1741.85        500.000        3589.85     
  1739.35        500.000        3590.21     
  1736.84        500.000        3590.57     
  1734.34        500.000        3590.93     
  1731.83        500.000        3591.28     
  1729.32        500.000        3591.64     
  1726.82        500.000        3592.00     
  1724.31        500.000        3592.36     
  1721.80        500.000        3592.71     
  1719.30        500.000        3593.07     
  1716.79        500.000        3593.43     
  1714.29        500.000        3593.78     
  1711.78        500.000        3594.14     
  1709.27        500.000        3594.50     
  1706.77        500.000        3594.85     
  1704.26        500.000        3595.21     
  1701.75        500.000        3595.57     
  1699.25        500.000        3595.92     
  1696.74        500.000        3596.28     
  1694.24        500.000        3596.63     
  1691.73        500.000        3596.99     
  1689.22        500.000        3597.35     
  1686.72        500.000        3597.70     
  1684.21        500.000        3598.06     
  1681.70        500.000        3598.41     
  1679.20        500.000        3598.77     
  1676.69        500.000        3599.12     
  1674.19        500.000        3599.48     
  1671.68        500.000        3599.83     
  1669.17        500.000        3600.19     
  1666.67        500.000        3600.54     
  1664.16        500.000        3608.54     
  1661.65        500.000        3611.31     
  1659.15        500.000        3611.62     
  1656.64        500.000        3611.82     
  1654.14        500.000        3612.11     
  1651.63        500.000        3612.39     
  1649.12        500.000        3612.66     
  1646.62        500.000        3612.93     
  1644.11        500.000        3603.73     
  1641.60        500.000        3622.75     
  1639.10        500.000        3613.75     
  1636.59        500.000        3614.01     
  1634.09        500.000        3614.28     
  1631.58        500.000        3614.55     
  1629.07        500.000        3614.83     
  1626.57        500.000        3615.10     
  1624.06        500.000        3615.37     
  1621.55        500.000        3540.73     
  1619.05        500.000        3418.10     
  1616.54        500.000        3420.52     
  1614.04        500.000        3423.06     
  1611.53        500.000        3425.90     
  1609.02        500.000        3427.87     
  1606.52        500.000        3428.11     
  1604.01        500.000        3435.13     
  1601.50        500.000        3433.49     
  1599.00        500.000        3434.13     
  1596.49        500.000        3440.91     
  1593.98        500.000        3442.07     
  1591.48        500.000        3443.53     
  1588.97        500.000        3445.43     
  1586.47        500.000        3450.73     
  1583.96        500.000        3450.06     
  1581.45        500.000        3451.86     
  1578.95        500.000        3454.06     
  1576.44        500.000        3455.45     
  1573.93        500.000        3459.07     
  1571.43        500.000        3460.47     
  1568.92        500.000        3462.17     
  1566.42        500.000        3464.00     
  1563.91        500.000        3467.22     
  1561.40        500.000        3468.04     
  1558.90        500.000        3475.40     
  1556.39        500.000        3474.51     
  1553.88        500.000        3475.46     
  1551.38        500.000        3478.63     
  1548.87        500.000        3480.46     
  1546.37        500.000        3483.05     
  1543.86        500.000        3484.80     
  1541.35        500.000        3486.27     
  1538.85        500.000        3489.05     
  1536.34        500.000        3490.76     
  1533.83        500.000        3493.25     
  1531.33        500.000        3495.47     
  1528.82        500.000        3497.31     
  1526.32        500.000        3500.06     
  1523.81        500.000        3501.89     
  1521.30        500.000        3504.35     
  1518.80        500.000        3505.53     
  1516.29        500.000        3512.60     
  1513.78        500.000        3516.12     
  1511.28        500.000        3513.12     
  1508.77        500.000        3514.35     
  1506.27        500.000        3517.25     
  1503.76        500.000        3519.12     
  1501.25        500.000        3520.81     
  1498.75        500.000        3523.27     
  1496.24        500.000        3527.39     
  1493.73        500.000        3526.30     
  1491.23        500.000        3529.67     
  1488.72        500.000        3361.73     
  1486.22        500.000        3337.09     
  1483.71        500.000        3338.13     
  1481.20        500.000        3338.85     
  1478.70        500.000        3339.06     
  1476.19        500.000        3340.15     
  1473.68        500.000        3323.07     
  1471.18        500.000        3319.34     
  1468.67        500.000        3321.00     
  1466.17        500.000        3324.17     
  1463.66        500.000        3324.19     
  1461.15        500.000        3326.01     
  1458.65        500.000        3331.03     
  1456.14        500.000        3336.27     
  1453.63        500.000        3337.72     
  1451.13        500.000        3339.00     
  1448.62        500.000        3339.97     
  1446.12        500.000        3321.60     
  1443.61        500.000        3311.90     
  1441.10        500.000        3313.94     
  1438.60        500.000        3316.56     
  1436.09        500.000        3319.07     
  1433.58        500.000        3321.37     
  1431.08        500.000        3323.44     
  1428.57        500.000        3326.08     
  1426.07        500.000        3328.39     
  1423.56        500.000        3330.70     
  1421.05        500.000        3333.22     
  1418.55        500.000        3335.60     
  1416.04        500.000        3338.16     
  1413.53        500.000        3340.62     
  1411.03        500.000        3343.03     
  1408.52        500.000        3345.23     
  1406.02        500.000        3348.02     
  1403.51        500.000        3350.62     
  1401.00        500.000        3353.00     
  1398.50        500.000        3355.85     
  1395.99        500.000        3358.31     
  1393.48        500.000        3360.92     
  1390.98        500.000        3363.67     
  1388.47        500.000        3170.50     
  1385.96        500.000        3170.30     
  1383.46        500.000        3173.19     
  1380.95        500.000        3176.31     
  1378.45        500.000        3179.36     
  1375.94        500.000        3182.47     
  1373.43        500.000        3185.64     
  1370.93        500.000        3188.96     
  1368.42        500.000        3192.74     
  1365.91        500.000        3194.94     
  1363.41        500.000        3198.26     
  1360.90        500.000        3201.42     
  1358.40        500.000        3204.85     
  1355.89        500.000        3207.59     
  1353.38        500.000        3210.81     
  1350.88        500.000        3233.68     
  1348.37        500.000        3259.16     
  1345.86        500.000        3259.00     
  1343.36        500.000        3264.18     
  1340.85        500.000        3267.20     
  1338.35        500.000        3271.08     
  1335.84        500.000        3262.23     
  1333.33        500.000        3278.10     
  1330.83        500.000        3281.60     
  1328.32        500.000        3284.66     
  1325.81        500.000        3287.10     
  1323.31        500.000        3289.67     
  1320.80        500.000        3293.57     
  1318.30        500.000        3296.06     
  1315.79        500.000        3298.17     
  1313.28        500.000        3301.21     
  1310.78        500.000        3303.76     
  1308.27        500.000        3305.77     
  1305.76        500.000        3302.83     
  1303.26        500.000        3311.14     
  1300.75        500.000        3312.68     
  1298.25        500.000        3314.84     
  1295.74        500.000        3317.84     
  1293.23        500.000        3318.49     
  1290.73        500.000        3320.41     
  1288.22        500.000        3320.69     
  1285.71        500.000        3340.41     
  1283.21        500.000        3361.20     
  1280.70        500.000        3361.91     
  1278.20        500.000        3364.13     
  1275.69        500.000        3365.03     
  1273.18        500.000        3365.69     
  1270.68        500.000        3366.59     
  1268.17        500.000        3367.18     
  1265.66        500.000        2919.31     
  1263.16        500.000        2854.06     
  1260.65        500.000        2856.43     
  1258.15        500.000        2858.60     
  1255.64        500.000        2860.45     
  1253.13        500.000        2862.05     
  1250.63        500.000        2863.55     
  1248.12        500.000        2865.19     
  1245.61        500.000        2866.41     
  1243.11        500.000        2867.45     
  1240.60        500.000        2868.40     
  1238.10        500.000        2869.00     
  1235.59        500.000        2869.34     
  1233.08        500.000        2869.71     
  1230.58        500.000        2869.98     
  1228.07        500.000        2869.98     
  1225.56        500.000        2870.62     
  1223.06        500.000        2870.16     
  1220.55        500.000        2870.28     
  1218.05        500.000        2869.94     
  1215.54        500.000        2870.04     
  1213.03        500.000        2868.94     
  1210.53        500.000        2868.07     
  1208.02        500.000        2867.25     
  1205.51        500.000        2866.03     
  1203.01        500.000        2688.29     
  1200.50        500.000        2682.18     
  1197.99        500.000        2679.87     
  1195.49        500.000        2675.88     
  1192.98        500.000        2669.52     
  1190.48        500.000        2657.83     
  1187.97        500.000        2637.96     
  1185.46        500.000        2638.08     
  1182.96        500.000        2638.19     
  1180.45        500.000        2638.31     
  1177.94        500.000        2638.42     
  1175.44        500.000        2638.53     
  1172.93        500.000        2638.64     
  1170.43        500.000        2638.73     
  1167.92        500.000        2638.84     
  1165.41        500.000        2638.95     
  1162.91        500.000        2639.08     
  1160.40        500.000        2639.20     
  1157.89        500.000        2639.31     
  1155.39        500.000        2639.42     
  1152.88        500.000        2639.53     
  1150.38        500.000        2639.64     
  1147.87        500.000        2639.76     
  1145.36        500.000        2639.84     
  1142.86        500.000        2639.96     
  1140.35        500.000        2637.06     
  1137.84        500.000        2637.17     
  1135.34        500.000        2637.28     
  1132.83        500.000        2637.39     
  1130.33        500.000        2637.50     
  1127.82        500.000        2637.61     
  1125.31        500.000        2637.72     
  1122.81        500.000        2637.83     
  1120.30        500.000        2637.94     
  1117.79        500.000        2637.22     
  1115.29        500.000        2637.33     
  1112.78        500.000        2637.44     
  1110.28        500.000        2637.54     
  1107.77        500.000        2637.65     
  1105.26        500.000        2637.76     
  1102.76        500.000        2637.71     
  1100.25        500.000        2637.82     
  1097.74        500.000        2637.93     
  1095.24        500.000        2638.04     
  1092.73        500.000        2637.77     
  1090.23        500.000        2637.88     
  1087.72        500.000        2637.99     
  1085.21        500.000        2638.00     
  1082.71        500.000        2638.22     
  1080.20        500.000        2638.39     
  1077.69        500.000        2638.43     
  1075.19        500.000        2638.53     
  1072.68        500.000        2638.58     
  1070.18        500.000        2638.67     
  1067.67        500.000        2638.76     
  1065.16        500.000        2638.86     
  1062.66        500.000        2638.92     
  1060.15        500.000        2639.00     
  1057.64        500.000        2639.08     
  1055.14        500.000        2639.16     
  1052.63        500.000        2639.25     
  1050.13        500.000        2639.33     
  1047.62        500.000        2639.43     
  1045.11        500.000        2639.49     
  1042.61        500.000        2639.58     
  1040.10        500.000        2639.66     
  1037.59        500.000        2639.74     
  1035.09        500.000        2639.82     
  1032.58        500.000        2639.91     
  1030.08        500.000        2640.02     
  1027.57        500.000        2640.06     
  1025.06        500.000        2640.16     
  1022.56        500.000        2640.25     
  1020.05        500.000        2640.34     
  1017.54        500.000        2640.42     
  1015.04        500.000        2640.51     
  1012.53        500.000        2640.59     
  1010.03        500.000        2640.68     
  1007.52        500.000        2640.77     
  1005.01        500.000        2640.85     
  1002.51        500.000        2640.94     
  1000.00        500.000        2641.55     
