|6.6.6
Archiving\03_Data\DeqLP/QFM_m4.25/YM20/YM20_6.tab                       
           1
T(K)    
  0.000000000000000E+000
  0.000000000000000E+000
           0
           3
T(K)           P(bar)         rho,kg/m3     
  2000.00        500.000        8099.88     
  1996.79        500.000        8101.72     
  1993.59        500.000        8103.55     
  1990.38        500.000        8105.38     
  1987.18        500.000        8107.21     
  1983.97        500.000        8109.03     
  1980.77        500.000        8110.86     
  1977.56        500.000        8112.68     
  1974.36        500.000        8114.50     
  1971.15        500.000        8116.32     
  1967.95        500.000        8118.14     
  1964.74        500.000        8119.96     
  1961.54        500.000        8121.78     
  1958.33        500.000        8123.59     
  1955.13        500.000        8125.41     
  1951.92        500.000        8127.22     
  1948.72        500.000        8129.03     
  1945.51        500.000        8130.84     
  1942.31        500.000        8132.64     
  1939.10        500.000        8134.45     
  1935.90        500.000        8136.25     
  1932.69        500.000        8138.06     
  1929.49        500.000        8139.86     
  1926.28        500.000        8141.66     
  1923.08        500.000        8143.46     
  1919.87        500.000        8145.25     
  1916.67        500.000        8147.05     
  1913.46        500.000        3290.02     
  1910.26        500.000        3201.74     
  1907.05        500.000        3184.23     
  1903.85        500.000        3176.46     
  1900.64        500.000        3172.20     
  1897.44        500.000        3169.61     
  1894.23        500.000        3169.61     
  1891.03        500.000        3169.73     
  1887.82        500.000        3169.92     
  1884.62        500.000        3170.18     
  1881.41        500.000        3171.40     
  1878.21        500.000        3174.15     
  1875.00        500.000        3177.09     
  1871.79        500.000        3179.68     
  1868.59        500.000        3182.90     
  1865.38        500.000        3185.81     
  1862.18        500.000        3188.44     
  1858.97        500.000        3190.85     
  1855.77        500.000        3193.07     
  1852.56        500.000        3195.13     
  1849.36        500.000        3197.04     
  1846.15        500.000        3198.83     
  1842.95        500.000        3201.39     
  1839.74        500.000        3203.79     
  1836.54        500.000        3206.06     
  1833.33        500.000        3208.20     
  1830.13        500.000        3210.23     
  1826.92        500.000        3212.16     
  1823.72        500.000        3213.99     
  1820.51        500.000        3215.75     
  1817.31        500.000        3217.80     
  1814.10        500.000        3219.85     
  1810.90        500.000        3221.86     
  1807.69        500.000        3223.80     
  1804.49        500.000        3225.82     
  1801.28        500.000        3227.77     
  1798.08        500.000        3229.64     
  1794.87        500.000        3231.46     
  1791.67        500.000        3233.51     
  1788.46        500.000        3235.49     
  1785.26        500.000        3237.41     
  1782.05        500.000        3239.27     
  1778.85        500.000        3241.07     
  1775.64        500.000        3242.83     
  1772.44        500.000        3244.53     
  1769.23        500.000        3246.19     
  1766.03        500.000        3248.00     
  1762.82        500.000        3249.76     
  1759.62        500.000        3251.48     
  1756.41        500.000        3253.16     
  1753.21        500.000        3254.80     
  1750.00        500.000        3256.40     
  1746.79        500.000        3257.97     
  1743.59        500.000        3259.49     
  1740.38        500.000        3261.14     
  1737.18        500.000        3262.76     
  1733.97        500.000        3264.34     
  1730.77        500.000        3265.89     
  1727.56        500.000        3267.41     
  1724.36        500.000        3268.90     
  1721.15        500.000        3270.36     
  1717.95        500.000        3271.80     
  1714.74        500.000        3273.23     
  1711.54        500.000        3274.63     
  1708.33        500.000        3276.01     
  1705.13        500.000        3277.37     
  1701.92        500.000        3278.70     
  1698.72        500.000        3280.02     
  1695.51        500.000        3281.31     
  1692.31        500.000        3282.59     
  1689.10        500.000        3283.83     
  1685.90        500.000        3285.06     
  1682.69        500.000        3286.27     
  1679.49        500.000        3287.47     
  1676.28        500.000        3288.65     
  1673.08        500.000        3289.82     
  1669.87        500.000        3290.97     
  1666.67        500.000        3292.11     
  1663.46        500.000        3293.19     
  1660.26        500.000        3294.25     
  1657.05        500.000        3295.31     
  1653.85        500.000        3296.35     
  1650.64        500.000        3297.39     
  1647.44        500.000        3298.41     
  1644.23        500.000        3299.42     
  1641.03        500.000        3300.43     
  1637.82        500.000        3301.35     
  1634.62        500.000        3302.27     
  1631.41        500.000        3303.19     
  1628.21        500.000        3304.09     
  1625.00        500.000        3304.99     
  1621.79        500.000        3305.88     
  1618.59        500.000        3306.76     
  1615.38        500.000        3307.64     
  1612.18        500.000        3306.68     
  1608.97        500.000        3305.59     
  1605.77        500.000        3304.68     
  1602.56        500.000        3303.83     
  1599.36        500.000        3303.18     
  1596.15        500.000        3302.57     
  1592.95        500.000        3301.99     
  1589.74        500.000        3301.44     
  1586.54        500.000        3301.15     
  1583.33        500.000        3300.87     
  1580.13        500.000        3300.61     
  1576.92        500.000        3300.37     
  1573.72        500.000        3300.15     
  1570.51        500.000        3299.94     
  1567.31        500.000        3299.74     
  1564.10        500.000        3299.56     
  1560.90        500.000        3299.55     
  1557.69        500.000        3299.55     
  1554.49        500.000        3299.55     
  1551.28        500.000        3299.57     
  1548.08        500.000        3299.59     
  1544.87        500.000        3299.61     
  1541.67        500.000        3299.65     
  1538.46        500.000        3299.69     
  1535.26        500.000        3299.81     
  1532.05        500.000        3299.94     
  1528.85        500.000        3300.07     
  1525.64        500.000        3300.20     
  1522.44        500.000        3300.34     
  1519.23        500.000        3300.49     
  1516.03        500.000        3300.63     
  1512.82        500.000        3300.79     
  1509.62        500.000        3300.98     
  1506.41        500.000        3301.17     
  1503.21        500.000        3301.36     
  1500.00        500.000        3301.56     
  1496.79        500.000        3301.77     
  1493.59        500.000        3301.97     
  1490.38        500.000        3302.18     
  1487.18        500.000        3302.40     
  1483.97        500.000        3302.63     
  1480.77        500.000        3302.86     
  1477.56        500.000        3303.11     
  1474.36        500.000        3303.36     
  1471.15        500.000        3303.70     
  1467.95        500.000        3304.04     
  1464.74        500.000        3304.38     
  1461.54        500.000        3304.72     
  1458.33        500.000        3305.11     
  1455.13        500.000        3305.50     
  1451.92        500.000        3305.90     
  1448.72        500.000        3305.48     
  1445.51        500.000        3305.92     
  1442.31        500.000        3306.36     
  1439.10        500.000        3306.81     
  1435.90        500.000        3299.05     
  1432.69        500.000        3299.49     
  1429.49        500.000        3299.93     
  1426.28        500.000        3300.36     
  1423.08        500.000        3300.80     
  1419.87        500.000        3301.24     
  1416.67        500.000        3301.67     
  1413.46        500.000        3302.11     
  1410.26        500.000        3294.55     
  1407.05        500.000        3294.98     
  1403.85        500.000        3295.41     
  1400.64        500.000        3295.84     
  1397.44        500.000        3296.27     
  1394.23        500.000        3296.70     
  1391.03        500.000        3297.13     
  1387.82        500.000        3297.56     
  1384.62        500.000        3293.29     
  1381.41        500.000        3293.72     
  1378.21        500.000        3294.15     
  1375.00        500.000        3294.58     
  1371.79        500.000        3295.00     
  1368.59        500.000        3295.43     
  1365.38        500.000        3295.85     
  1362.18        500.000        3296.28     
  1358.97        500.000        3293.12     
  1355.77        500.000        3293.54     
  1352.56        500.000        3293.96     
  1349.36        500.000        3294.39     
  1346.15        500.000        3294.81     
  1342.95        500.000        3295.23     
  1339.74        500.000        3295.65     
  1336.54        500.000        3296.08     
  1333.33        500.000        3293.47     
  1330.13        500.000        3293.89     
  1326.92        500.000        3294.31     
  1323.72        500.000        3294.72     
  1320.51        500.000        3295.14     
  1317.31        500.000        3295.56     
  1314.10        500.000        3295.98     
  1310.90        500.000        3296.40     
  1307.69        500.000        3294.17     
  1304.49        500.000        3294.28     
  1301.28        500.000        3290.89     
  1298.08        500.000        3289.24     
  1294.87        500.000        3289.60     
  1291.67        500.000        3290.01     
  1288.46        500.000        3290.42     
  1285.26        500.000        3290.84     
  1282.05        500.000        3291.04     
  1278.85        500.000        3291.45     
  1275.64        500.000        3291.87     
  1272.44        500.000        3292.28     
  1269.23        500.000        3292.69     
  1266.03        500.000        3293.10     
  1262.82        500.000        3293.51     
  1259.62        500.000        3293.92     
  1256.41        500.000        3293.95     
  1253.21        500.000        3294.36     
  1250.00        500.000        3294.77     
  1246.79        500.000        3295.18     
  1243.59        500.000        3295.59     
  1240.38        500.000        3296.00     
  1237.18        500.000        3296.41     
  1233.97        500.000        3296.81     
  1230.77        500.000        3296.86     
  1227.56        500.000        3297.27     
  1224.36        500.000        3297.68     
  1221.15        500.000        3298.09     
  1217.95        500.000        3298.49     
  1214.74        500.000        3298.90     
  1211.54        500.000        3299.31     
  1208.33        500.000        3299.71     
  1205.13        500.000        3299.79     
  1201.92        500.000        3300.20     
  1198.72        500.000        3300.60     
  1195.51        500.000        3301.01     
  1192.31        500.000        3301.41     
  1189.10        500.000        3301.82     
  1185.90        500.000        3302.22     
  1182.69        500.000        3302.62     
  1179.49        500.000        3302.73     
  1176.28        500.000        3303.13     
  1173.08        500.000        3303.54     
  1169.87        500.000        3303.94     
  1166.67        500.000        3304.34     
  1163.46        500.000        3304.75     
  1160.26        500.000        3305.15     
  1157.05        500.000        3305.55     
  1153.85        500.000        3305.68     
  1150.64        500.000        3306.08     
  1147.44        500.000        3306.49     
  1144.23        500.000        3306.89     
  1141.03        500.000        3307.29     
  1137.82        500.000        3307.69     
  1134.62        500.000        3308.09     
  1131.41        500.000        3308.49     
  1128.21        500.000        3308.65     
  1125.00        500.000        3309.04     
  1121.79        500.000        3309.44     
  1118.59        500.000        3309.84     
  1115.38        500.000        3310.24     
  1112.18        500.000        3310.64     
  1108.97        500.000        3311.04     
  1105.77        500.000        3311.43     
  1102.56        500.000        3311.62     
  1099.36        500.000        3312.02     
  1096.15        500.000        3312.42     
  1092.95        500.000        3312.81     
  1089.74        500.000        3313.21     
  1086.54        500.000        3313.61     
  1083.33        500.000        3314.00     
  1080.13        500.000        3314.40     
  1076.92        500.000        3314.62     
  1073.72        500.000        3315.01     
  1070.51        500.000        3315.37     
  1067.31        500.000        3315.74     
  1064.10        500.000        3316.12     
  1060.90        500.000        3316.50     
  1057.69        500.000        3316.87     
  1054.49        500.000        3317.26     
  1051.28        500.000        3317.61     
  1048.08        500.000        3318.01     
  1044.87        500.000        3318.40     
  1041.67        500.000        3318.79     
  1038.46        500.000        3319.19     
  1035.26        500.000        3319.58     
  1032.05        500.000        3319.97     
  1028.85        500.000        3320.36     
  1025.64        500.000        3320.61     
  1022.44        500.000        3321.00     
  1019.23        500.000        3321.39     
  1016.03        500.000        3321.78     
  1012.82        500.000        3322.17     
  1009.62        500.000        3322.56     
  1006.41        500.000        3322.95     
  1003.21        500.000        3323.34     
  1000.00        500.000        3323.62     
