|6.6.6
Archiving\03_Data\eq/QFM_m0.75/GRV/GRV_3.tab                              
           1
T(K)    
  0.000000000000000E+000
  0.000000000000000E+000
           0
           9
T(K)           P(bar)         melt(TH)       pxmn           Sp(TH)         O(HP)          Opx(TH)        Cpx(TH)        Cpx(TH)       
  2000.00        2500.00        99.3216       0.678410                 NaN            NaN            NaN            NaN            NaN
  1996.79        2500.00        99.3215       0.678482                 NaN            NaN            NaN            NaN            NaN
  1993.59        2500.00        99.3214       0.678554                 NaN            NaN            NaN            NaN            NaN
  1990.38        2500.00        99.3214       0.678626                 NaN            NaN            NaN            NaN            NaN
  1987.18        2500.00        99.3213       0.678698                 NaN            NaN            NaN            NaN            NaN
  1983.97        2500.00        99.3212       0.678770                 NaN            NaN            NaN            NaN            NaN
  1980.77        2500.00        99.3212       0.678842                 NaN            NaN            NaN            NaN            NaN
  1977.56        2500.00        99.3211       0.678914                 NaN            NaN            NaN            NaN            NaN
  1974.36        2500.00        99.3210       0.678986                 NaN            NaN            NaN            NaN            NaN
  1971.15        2500.00        99.3209       0.679058                 NaN            NaN            NaN            NaN            NaN
  1967.95        2500.00        99.3209       0.679130                 NaN            NaN            NaN            NaN            NaN
  1964.74        2500.00        99.3208       0.679203                 NaN            NaN            NaN            NaN            NaN
  1961.54        2500.00        99.3207       0.679275                 NaN            NaN            NaN            NaN            NaN
  1958.33        2500.00        99.3207       0.679347                 NaN            NaN            NaN            NaN            NaN
  1955.13        2500.00        99.3206       0.679419                 NaN            NaN            NaN            NaN            NaN
  1951.92        2500.00        99.3205       0.679492                 NaN            NaN            NaN            NaN            NaN
  1948.72        2500.00        99.3204       0.679564                 NaN            NaN            NaN            NaN            NaN
  1945.51        2500.00        99.3204       0.679637                 NaN            NaN            NaN            NaN            NaN
  1942.31        2500.00        99.3203       0.679709                 NaN            NaN            NaN            NaN            NaN
  1939.10        2500.00        99.3202       0.679781                 NaN            NaN            NaN            NaN            NaN
  1935.90        2500.00        99.3201       0.679854                 NaN            NaN            NaN            NaN            NaN
  1932.69        2500.00        99.3201       0.679926                 NaN            NaN            NaN            NaN            NaN
  1929.49        2500.00        99.3200       0.679999                 NaN            NaN            NaN            NaN            NaN
  1926.28        2500.00        99.3199       0.680071                 NaN            NaN            NaN            NaN            NaN
  1923.08        2500.00        99.3199       0.680144                 NaN            NaN            NaN            NaN            NaN
  1919.87        2500.00        99.3198       0.680217                 NaN            NaN            NaN            NaN            NaN
  1916.67        2500.00        99.3197       0.680289                 NaN            NaN            NaN            NaN            NaN
  1913.46        2500.00        99.3196       0.680362                 NaN            NaN            NaN            NaN            NaN
  1910.26        2500.00        99.3196       0.680434                 NaN            NaN            NaN            NaN            NaN
  1907.05        2500.00        99.3195       0.680507                 NaN            NaN            NaN            NaN            NaN
  1903.85        2500.00        99.3194       0.680580                 NaN            NaN            NaN            NaN            NaN
  1900.64        2500.00        99.3193       0.680653                 NaN            NaN            NaN            NaN            NaN
  1897.44        2500.00        99.3193       0.680726                 NaN            NaN            NaN            NaN            NaN
  1894.23        2500.00        99.3192       0.680798                 NaN            NaN            NaN            NaN            NaN
  1891.03        2500.00        99.3191       0.680871                 NaN            NaN            NaN            NaN            NaN
  1887.82        2500.00        99.3191       0.680944                 NaN            NaN            NaN            NaN            NaN
  1884.62        2500.00        99.3190       0.681016                 NaN            NaN            NaN            NaN            NaN
  1881.41        2500.00        99.3189       0.681089                 NaN            NaN            NaN            NaN            NaN
  1878.21        2500.00        99.3188       0.681162                 NaN            NaN            NaN            NaN            NaN
  1875.00        2500.00        99.3188       0.681235                 NaN            NaN            NaN            NaN            NaN
  1871.79        2500.00        99.3187       0.681308                 NaN            NaN            NaN            NaN            NaN
  1868.59        2500.00        99.3186       0.681381                 NaN            NaN            NaN            NaN            NaN
  1865.38        2500.00        99.3185       0.681454                 NaN            NaN            NaN            NaN            NaN
  1862.18        2500.00        99.3185       0.681527                 NaN            NaN            NaN            NaN            NaN
  1858.97        2500.00        99.3184       0.681600                 NaN            NaN            NaN            NaN            NaN
  1855.77        2500.00        99.3183       0.681673                 NaN            NaN            NaN            NaN            NaN
  1852.56        2500.00        99.3183       0.681746                 NaN            NaN            NaN            NaN            NaN
  1849.36        2500.00        99.3182       0.681819                 NaN            NaN            NaN            NaN            NaN
  1846.15        2500.00        99.3181       0.681892                 NaN            NaN            NaN            NaN            NaN
  1842.95        2500.00        99.3180       0.681965                 NaN            NaN            NaN            NaN            NaN
  1839.74        2500.00        99.3180       0.682038                 NaN            NaN            NaN            NaN            NaN
  1836.54        2500.00        99.3179       0.682111                 NaN            NaN            NaN            NaN            NaN
  1833.33        2500.00        99.3178       0.682185                 NaN            NaN            NaN            NaN            NaN
  1830.13        2500.00        99.3078       0.682271       0.995938E-002            NaN            NaN            NaN            NaN
  1826.92        2500.00        99.2931       0.682363       0.245444E-001            NaN            NaN            NaN            NaN
  1823.72        2500.00        99.2786       0.682455       0.389506E-001            NaN            NaN            NaN            NaN
  1820.51        2500.00        99.2641       0.682547       0.533607E-001            NaN            NaN            NaN            NaN
  1817.31        2500.00        99.2502       0.682637       0.671767E-001            NaN            NaN            NaN            NaN
  1814.10        2500.00        99.2363       0.682728       0.809965E-001            NaN            NaN            NaN            NaN
  1810.90        2500.00        99.2224       0.682819       0.948199E-001            NaN            NaN            NaN            NaN
  1807.69        2500.00        99.2084       0.682910       0.108647                 NaN            NaN            NaN            NaN
  1804.49        2500.00        99.1945       0.683000       0.122478                 NaN            NaN            NaN            NaN
  1801.28        2500.00        99.1806       0.683091       0.136312                 NaN            NaN            NaN            NaN
  1798.08        2500.00        99.1667       0.683182       0.150150                 NaN            NaN            NaN            NaN
  1794.87        2500.00        99.1527       0.683273       0.163992                 NaN            NaN            NaN            NaN
  1791.67        2500.00        99.1397       0.683362       0.176941                 NaN            NaN            NaN            NaN
  1788.46        2500.00        99.1267       0.683451       0.189894                 NaN            NaN            NaN            NaN
  1785.26        2500.00        99.1136       0.683540       0.202850                 NaN            NaN            NaN            NaN
  1782.05        2500.00        99.1006       0.683630       0.215810                 NaN            NaN            NaN            NaN
  1778.85        2500.00        99.0875       0.683719       0.228773                 NaN            NaN            NaN            NaN
  1775.64        2500.00        99.0745       0.683808       0.241739                 NaN            NaN            NaN            NaN
  1772.44        2500.00        99.0614       0.683897       0.254709                 NaN            NaN            NaN            NaN
  1769.23        2500.00        99.0483       0.683987       0.267682                 NaN            NaN            NaN            NaN
  1766.03        2500.00        99.0359       0.684075       0.280023                 NaN            NaN            NaN            NaN
  1762.82        2500.00        99.0232       0.684163       0.292540       0.865706E-004            NaN            NaN            NaN
  1759.62        2500.00        98.6389       0.684388       0.304414       0.372332                 NaN            NaN            NaN
  1756.41        2500.00        98.2543       0.684613       0.316296       0.744808                 NaN            NaN            NaN
  1753.21        2500.00        97.5081       0.684970       0.327553        1.47939                 NaN            NaN            NaN
  1750.00        2500.00        96.7612       0.685325       0.338821        2.21470                 NaN            NaN            NaN
  1746.79        2500.00        96.0135       0.685678       0.350099        2.95075                 NaN            NaN            NaN
  1743.59        2500.00        95.2651       0.686029       0.361388        3.68752                 NaN            NaN            NaN
  1740.38        2500.00        94.5085       0.686382       0.372006        4.43310                 NaN            NaN            NaN
  1737.18        2500.00        93.7512       0.686734       0.382634        5.17941                 NaN            NaN            NaN
  1733.97        2500.00        92.9932       0.687083       0.393272        5.92644                 NaN            NaN            NaN
  1730.77        2500.00        92.2345       0.687431       0.403919        6.67419                 NaN            NaN            NaN
  1727.56        2500.00        91.4750       0.687776       0.414576        7.42264                 NaN            NaN            NaN
  1724.36        2500.00        90.7148       0.688119       0.425242        8.17179                 NaN            NaN            NaN
  1721.15        2500.00        89.9540       0.688460       0.435916        8.92164                 NaN            NaN            NaN
  1717.95        2500.00        89.1924       0.688799       0.446600        9.67217                 NaN            NaN            NaN
  1714.74        2500.00        88.4330       0.689137       0.456385        10.4215                 NaN            NaN            NaN
  1711.54        2500.00        87.6729       0.689472       0.466178        11.1715                 NaN            NaN            NaN
  1708.33        2500.00        86.9121       0.689805       0.475978        11.9222                 NaN            NaN            NaN
  1705.13        2500.00        86.1506       0.690136       0.485786        12.6735                 NaN            NaN            NaN
  1701.92        2500.00        85.3885       0.690465       0.495602        13.4254                 NaN            NaN            NaN
  1698.72        2500.00        84.6257       0.690791       0.505425        14.1780                 NaN            NaN            NaN
  1695.51        2500.00        83.8624       0.691115       0.515255        14.9313                 NaN            NaN            NaN
  1692.31        2500.00        83.0983       0.691436       0.525093        15.6851                 NaN            NaN            NaN
  1689.10        2500.00        82.3500       0.691750       0.534332        16.4239                 NaN            NaN            NaN
  1685.90        2500.00        81.6010       0.692062       0.543578        17.1633                 NaN            NaN            NaN
  1682.69        2500.00        80.8515       0.692371       0.552830        17.9033                 NaN            NaN            NaN
  1679.49        2500.00        80.1014       0.692678       0.562088        18.6438                 NaN            NaN            NaN
  1676.28        2500.00        79.3645       0.692978       0.570940        19.3716                 NaN            NaN            NaN
  1673.08        2500.00        78.6270       0.693275       0.579798        20.0999                 NaN            NaN            NaN
  1669.87        2500.00        77.8958       0.693567       0.588409        20.8222                 NaN            NaN            NaN
  1666.67        2500.00        76.8778       0.694132       0.597306        21.4625       0.368180                 NaN            NaN
  1663.46        2500.00        74.9688       0.695624       0.603174        21.7143        2.01812                 NaN            NaN
  1660.26        2500.00        73.0517       0.697120       0.609066        21.9670        3.67510                 NaN            NaN
  1657.05        2500.00        71.1264       0.698621       0.614981        22.2208        5.33915                 NaN            NaN
  1653.85        2500.00        69.1931       0.700125       0.620919        22.4756        7.01031                 NaN            NaN
  1650.64        2500.00        67.2515       0.701634       0.626881        22.7314        8.68859                 NaN            NaN
  1647.44        2500.00        65.3017       0.703147       0.632867        22.9882        10.3740                 NaN            NaN
  1644.23        2500.00        63.3437       0.704664       0.638876        23.2461        12.0667                 NaN            NaN
  1641.03        2500.00        61.3774       0.706185       0.644909        23.5049        13.7665                 NaN            NaN
  1637.82        2500.00        59.9378       0.707337       0.646598        23.6757        15.0326                 NaN            NaN
  1634.62        2500.00        58.4937       0.708491       0.648292        23.8469        16.3027                 NaN            NaN
  1631.41        2500.00        57.0449       0.709648       0.649989        24.0186        17.5768                 NaN            NaN
  1628.21        2500.00        55.5916       0.710806       0.651691        24.1908        18.8551                 NaN            NaN
  1625.00        2500.00        54.1337       0.711967       0.653396        24.3636        20.1374                 NaN            NaN
  1621.79        2500.00        52.6711       0.713129       0.655106        24.5368        21.4238                 NaN            NaN
  1618.59        2500.00        51.2040       0.714294       0.656820        24.7105        22.7144                 NaN            NaN
  1615.38        2500.00        49.7322       0.715461       0.658537        24.8848        24.0090                 NaN            NaN
  1612.18        2500.00        48.5549       0.716426       0.656534        25.0089        25.0632                 NaN            NaN
  1608.97        2500.00        47.3746       0.717393       0.654524        25.1333        26.1202                 NaN            NaN
  1605.77        2500.00        46.1912       0.718362       0.652508        25.2580        27.1799                 NaN            NaN
  1602.56        2500.00        45.0048       0.719331       0.650485        25.3830        28.2424                 NaN            NaN
  1599.36        2500.00        43.8153       0.720302       0.648455        25.5083        29.3077                 NaN            NaN
  1596.15        2500.00        42.6227       0.721274       0.646419        25.6338        30.3758                 NaN            NaN
  1592.95        2500.00        41.4271       0.722248       0.644376        25.7597        31.4466                 NaN            NaN
  1589.74        2500.00        40.2284       0.723223       0.642326        25.8858        32.5202                 NaN            NaN
  1586.54        2500.00        39.1674       0.724110       0.635405        25.9914        33.4817                 NaN            NaN
  1583.33        2500.00        38.1040       0.724998       0.628466        26.0972        34.4454                 NaN            NaN
  1580.13        2500.00        37.0381       0.725887       0.621510        26.2032        35.4113                 NaN            NaN
  1576.92        2500.00        35.9697       0.726778       0.614535        26.3095        36.3795                 NaN            NaN
  1573.72        2500.00        34.8988       0.727670       0.607543        26.4159        37.3500                 NaN            NaN
  1570.51        2500.00        33.8255       0.728563       0.600532        26.5226        38.3228                 NaN            NaN
  1567.31        2500.00        32.7497       0.729457       0.593504        26.6295        39.2978                 NaN            NaN
  1564.10        2500.00        31.6714       0.730352       0.586457        26.7367        40.2751                 NaN            NaN
  1560.90        2500.00        30.6039       0.731249       0.574937        26.8478        41.2421                 NaN            NaN
  1557.69        2500.00        29.5340       0.732147       0.563389        26.9592        42.2113                 NaN            NaN
  1554.49        2500.00        28.2572       0.733224       0.558919        27.0820        42.1633        1.20530                 NaN
  1551.28        2500.00        26.8442       0.734427       0.559011        27.2150        41.5223        3.12501                 NaN
  1548.08        2500.00        25.4028       0.735666       0.557134        27.3585        41.0243        4.92163                 NaN
  1544.87        2500.00        23.7688       0.737112       0.540082        27.5618        41.6899        1.12419        4.57813     
  1541.67        2500.00        23.7674       0.737136       0.540101        27.5623        41.6906        1.12421        4.57821     
  1538.46        2500.00        20.7002       0.739862       0.498070        27.9568        43.4276        2.78166        3.89578     
