|6.6.6
Archiving\03_Data\Deq/QFM_m0.25/WD94/WD94_3.tab                           
           1
T(K)    
  0.000000000000000E+000
  0.000000000000000E+000
           0
           9
T(K)           P(bar)         melt(TH)       Sp(TH)         O(HP)          Opx(TH)        Cpx(TH)        Cpx(TH)        an            
  2000.00        2500.00        100.000                 NaN            NaN            NaN            NaN            NaN            NaN
  1996.79        2500.00        100.000                 NaN            NaN            NaN            NaN            NaN            NaN
  1993.59        2500.00        100.000                 NaN            NaN            NaN            NaN            NaN            NaN
  1990.38        2500.00        100.000                 NaN            NaN            NaN            NaN            NaN            NaN
  1987.18        2500.00        100.000                 NaN            NaN            NaN            NaN            NaN            NaN
  1983.97        2500.00        100.000                 NaN            NaN            NaN            NaN            NaN            NaN
  1980.77        2500.00        100.000                 NaN            NaN            NaN            NaN            NaN            NaN
  1977.56        2500.00        100.000                 NaN            NaN            NaN            NaN            NaN            NaN
  1974.36        2500.00        100.000                 NaN            NaN            NaN            NaN            NaN            NaN
  1971.15        2500.00        100.000                 NaN            NaN            NaN            NaN            NaN            NaN
  1967.95        2500.00        100.000                 NaN            NaN            NaN            NaN            NaN            NaN
  1964.74        2500.00        100.000                 NaN            NaN            NaN            NaN            NaN            NaN
  1961.54        2500.00        100.000                 NaN            NaN            NaN            NaN            NaN            NaN
  1958.33        2500.00        100.000                 NaN            NaN            NaN            NaN            NaN            NaN
  1955.13        2500.00        100.000                 NaN            NaN            NaN            NaN            NaN            NaN
  1951.92        2500.00        100.000                 NaN            NaN            NaN            NaN            NaN            NaN
  1948.72        2500.00        100.000                 NaN            NaN            NaN            NaN            NaN            NaN
  1945.51        2500.00        100.000                 NaN            NaN            NaN            NaN            NaN            NaN
  1942.31        2500.00        100.000                 NaN            NaN            NaN            NaN            NaN            NaN
  1939.10        2500.00        100.000                 NaN            NaN            NaN            NaN            NaN            NaN
  1935.90        2500.00        100.000                 NaN            NaN            NaN            NaN            NaN            NaN
  1932.69        2500.00        100.000                 NaN            NaN            NaN            NaN            NaN            NaN
  1929.49        2500.00        100.000                 NaN            NaN            NaN            NaN            NaN            NaN
  1926.28        2500.00        100.000                 NaN            NaN            NaN            NaN            NaN            NaN
  1923.08        2500.00        100.000                 NaN            NaN            NaN            NaN            NaN            NaN
  1919.87        2500.00        100.000                 NaN            NaN            NaN            NaN            NaN            NaN
  1916.67        2500.00        100.000                 NaN            NaN            NaN            NaN            NaN            NaN
  1913.46        2500.00        100.000                 NaN            NaN            NaN            NaN            NaN            NaN
  1910.26        2500.00        99.9896                 NaN  0.103961E-001            NaN            NaN            NaN            NaN
  1907.05        2500.00        99.2371                 NaN  0.762861                 NaN            NaN            NaN            NaN
  1903.85        2500.00        98.4887       0.727746E-002   1.50401                 NaN            NaN            NaN            NaN
  1900.64        2500.00        97.7431       0.196860E-001   2.23723                 NaN            NaN            NaN            NaN
  1897.44        2500.00        96.9966       0.321099E-001   2.97134                 NaN            NaN            NaN            NaN
  1894.23        2500.00        96.2956       0.437761E-001   3.66065                 NaN            NaN            NaN            NaN
  1891.03        2500.00        95.5938       0.554561E-001   4.35075                 NaN            NaN            NaN            NaN
  1887.82        2500.00        94.8912       0.671499E-001   5.04165                 NaN            NaN            NaN            NaN
  1884.62        2500.00        94.1878       0.788573E-001   5.73333                 NaN            NaN            NaN            NaN
  1881.41        2500.00        93.4836       0.905785E-001   6.42580                 NaN            NaN            NaN            NaN
  1878.21        2500.00        92.7786       0.102313        7.11905                 NaN            NaN            NaN            NaN
  1875.00        2500.00        92.0729       0.114062        7.81308                 NaN            NaN            NaN            NaN
  1871.79        2500.00        91.3663       0.125823        8.50789                 NaN            NaN            NaN            NaN
  1868.59        2500.00        90.7088       0.136534        9.15465                 NaN            NaN            NaN            NaN
  1865.38        2500.00        90.0506       0.147257        9.80210                 NaN            NaN            NaN            NaN
  1862.18        2500.00        89.3918       0.157992        10.4502                 NaN            NaN            NaN            NaN
  1858.97        2500.00        88.7322       0.168738        11.0991                 NaN            NaN            NaN            NaN
  1855.77        2500.00        88.0720       0.179496        11.7485                 NaN            NaN            NaN            NaN
  1852.56        2500.00        87.4110       0.190265        12.3987                 NaN            NaN            NaN            NaN
  1849.36        2500.00        86.7494       0.201046        13.0496                 NaN            NaN            NaN            NaN
  1846.15        2500.00        86.0871       0.211838        13.7011                 NaN            NaN            NaN            NaN
  1842.95        2500.00        85.4589       0.221782        14.3193                 NaN            NaN            NaN            NaN
  1839.74        2500.00        84.8302       0.231735        14.9381                 NaN            NaN            NaN            NaN
  1836.54        2500.00        84.2008       0.241699        15.5575                 NaN            NaN            NaN            NaN
  1833.33        2500.00        83.5708       0.251672        16.1775                 NaN            NaN            NaN            NaN
  1830.13        2500.00        82.9402       0.261656        16.7982                 NaN            NaN            NaN            NaN
  1826.92        2500.00        82.3089       0.271649        17.4194                 NaN            NaN            NaN            NaN
  1823.72        2500.00        81.6771       0.281653        18.0412                 NaN            NaN            NaN            NaN
  1820.51        2500.00        81.0447       0.291666        18.6636                 NaN            NaN            NaN            NaN
  1817.31        2500.00        80.4350       0.300859        19.2641                 NaN            NaN            NaN            NaN
  1814.10        2500.00        79.8248       0.310061        19.8651                 NaN            NaN            NaN            NaN
  1810.90        2500.00        79.2141       0.319271        20.4667                 NaN            NaN            NaN            NaN
  1807.69        2500.00        78.6027       0.328490        21.0688                 NaN            NaN            NaN            NaN
  1804.49        2500.00        77.9909       0.337718        21.6714                 NaN            NaN            NaN            NaN
  1801.28        2500.00        77.3784       0.346954        22.2746                 NaN            NaN            NaN            NaN
  1798.08        2500.00        76.7655       0.356198        22.8783                 NaN            NaN            NaN            NaN
  1794.87        2500.00        76.1520       0.365451        23.4826                 NaN            NaN            NaN            NaN
  1791.67        2500.00        75.5544       0.373980        24.0716                 NaN            NaN            NaN            NaN
  1788.46        2500.00        74.9563       0.382516        24.6612                 NaN            NaN            NaN            NaN
  1785.26        2500.00        74.3578       0.391060        25.2512                 NaN            NaN            NaN            NaN
  1782.05        2500.00        73.7587       0.399611        25.8417                 NaN            NaN            NaN            NaN
  1778.85        2500.00        73.1591       0.408169        26.4328                 NaN            NaN            NaN            NaN
  1775.64        2500.00        72.5590       0.416735        27.0243                 NaN            NaN            NaN            NaN
  1772.44        2500.00        71.9584       0.425308        27.6163                 NaN            NaN            NaN            NaN
  1769.23        2500.00        71.3574       0.433888        28.2088                 NaN            NaN            NaN            NaN
  1766.03        2500.00        70.7740       0.441874        28.7841                 NaN            NaN            NaN            NaN
  1762.82        2500.00        70.1902       0.449867        29.3599                 NaN            NaN            NaN            NaN
  1759.62        2500.00        69.6060       0.457866        29.9362                 NaN            NaN            NaN            NaN
  1756.41        2500.00        69.0213       0.465871        30.5128                 NaN            NaN            NaN            NaN
  1753.21        2500.00        68.4362       0.473883        31.0899                 NaN            NaN            NaN            NaN
  1750.00        2500.00        67.8506       0.481901        31.6675                 NaN            NaN            NaN            NaN
  1746.79        2500.00        67.2646       0.489925        32.2455                 NaN            NaN            NaN            NaN
  1743.59        2500.00        66.6782       0.497955        32.8239                 NaN            NaN            NaN            NaN
  1740.38        2500.00        66.1102       0.505224        33.3846                 NaN            NaN            NaN            NaN
  1737.18        2500.00        65.5418       0.512499        33.9457                 NaN            NaN            NaN            NaN
  1733.97        2500.00        64.9730       0.519780        34.5073                 NaN            NaN            NaN            NaN
  1730.77        2500.00        64.4038       0.527065        35.0692                 NaN            NaN            NaN            NaN
  1727.56        2500.00        63.8342       0.534355        35.6314                 NaN            NaN            NaN            NaN
  1724.36        2500.00        63.2643       0.541650        36.1941                 NaN            NaN            NaN            NaN
  1721.15        2500.00        62.6940       0.548949        36.7571                 NaN            NaN            NaN            NaN
  1717.95        2500.00        62.1233       0.556254        37.3204                 NaN            NaN            NaN            NaN
  1714.74        2500.00        61.5810       0.562909        37.8561                 NaN            NaN            NaN            NaN
  1711.54        2500.00        61.0383       0.569568        38.3921                 NaN            NaN            NaN            NaN
  1708.33        2500.00        60.4954       0.576231        38.9284                 NaN            NaN            NaN            NaN
  1705.13        2500.00        59.9521       0.582898        39.4650                 NaN            NaN            NaN            NaN
  1701.92        2500.00        59.4085       0.589568        40.0019                 NaN            NaN            NaN            NaN
  1698.72        2500.00        58.8646       0.596242        40.5391                 NaN            NaN            NaN            NaN
  1695.51        2500.00        58.3205       0.602920        41.0766                 NaN            NaN            NaN            NaN
  1692.31        2500.00        57.7760       0.609602        41.6144                 NaN            NaN            NaN            NaN
  1689.10        2500.00        57.2609       0.616383        42.1227                 NaN            NaN            NaN            NaN
  1685.90        2500.00        56.7455       0.623168        42.6313                 NaN            NaN            NaN            NaN
  1682.69        2500.00        56.2299       0.629957        43.1402                 NaN            NaN            NaN            NaN
  1679.49        2500.00        55.7140       0.636749        43.6492                 NaN            NaN            NaN            NaN
  1676.28        2500.00        55.1979       0.643544        44.1585                 NaN            NaN            NaN            NaN
  1673.08        2500.00        54.6816       0.650342        44.6681                 NaN            NaN            NaN            NaN
  1669.87        2500.00        54.1650       0.657143        45.1778                 NaN            NaN            NaN            NaN
  1666.67        2500.00        53.6483       0.663948        45.6878                 NaN            NaN            NaN            NaN
  1663.46        2500.00        53.1537       0.670322        46.1760                 NaN            NaN            NaN            NaN
  1660.26        2500.00        52.6589       0.676700        46.6644                 NaN            NaN            NaN            NaN
  1657.05        2500.00        52.1794       0.682913        47.1377                 NaN            NaN            NaN            NaN
  1653.85        2500.00        50.7500       0.681849        47.4529        1.11531                 NaN            NaN            NaN
  1650.64        2500.00        49.4090       0.679777        47.7095        2.20168                 NaN            NaN            NaN
  1647.44        2500.00        48.0643       0.677698        47.9668        3.29120                 NaN            NaN            NaN
  1644.23        2500.00        46.7158       0.675611        48.2247        4.38387                 NaN            NaN            NaN
  1641.03        2500.00        45.3635       0.673516        48.4833        5.47970                 NaN            NaN            NaN
  1637.82        2500.00        44.3582       0.670431        48.6652        6.30623                 NaN            NaN            NaN
  1634.62        2500.00        43.3508       0.667338        48.8474        7.13454                 NaN            NaN            NaN
  1631.41        2500.00        42.3413       0.664236        49.0299        7.96463                 NaN            NaN            NaN
  1628.21        2500.00        41.3297       0.661127        49.2127        8.79652                 NaN            NaN            NaN
  1625.00        2500.00        40.3161       0.658010        49.3958        9.63019                 NaN            NaN            NaN
  1621.79        2500.00        39.3003       0.654885        49.5792        10.4656                 NaN            NaN            NaN
  1618.59        2500.00        38.2825       0.651751        49.7629        11.3029                 NaN            NaN            NaN
  1615.38        2500.00        37.2626       0.648610        49.9468        12.1419                 NaN            NaN            NaN
  1612.18        2500.00        36.4776       0.644441        50.0853        12.7927                 NaN            NaN            NaN
  1608.97        2500.00        35.6913       0.640264        50.2239        13.4445                 NaN            NaN            NaN
  1605.77        2500.00        34.9038       0.636079        50.3627        14.0974                 NaN            NaN            NaN
  1602.56        2500.00        34.1150       0.631887        50.5017        14.7514                 NaN            NaN            NaN
  1599.36        2500.00        33.3249       0.627686        50.6408        15.4066                 NaN            NaN            NaN
  1596.15        2500.00        32.5336       0.623477        50.7801        16.0628                 NaN            NaN            NaN
  1592.95        2500.00        31.7410       0.619260        50.9196        16.7201                 NaN            NaN            NaN
  1589.74        2500.00        30.9472       0.615036        51.0592        17.3786                 NaN            NaN            NaN
  1586.54        2500.00        30.3182       0.609915        51.1606        17.9112                 NaN            NaN            NaN
  1583.33        2500.00        29.6885       0.604786        51.2622        18.4446                 NaN            NaN            NaN
  1580.13        2500.00        29.0580       0.599649        51.3638        18.9786                 NaN            NaN            NaN
  1576.92        2500.00        28.4266       0.594505        51.4655        19.5134                 NaN            NaN            NaN
  1573.72        2500.00        27.7945       0.589354        51.5672        20.0489                 NaN            NaN            NaN
  1570.51        2500.00        27.1616       0.584194        51.6691        20.5851                 NaN            NaN            NaN
  1567.31        2500.00        26.5279       0.579027        51.7711        21.1220                 NaN            NaN            NaN
  1564.10        2500.00        25.8934       0.573852        51.8731        21.6597                 NaN            NaN            NaN
  1560.90        2500.00        25.3558       0.567722        51.9526        22.1239                 NaN            NaN            NaN
  1557.69        2500.00        24.8177       0.561585        52.0321        22.5886                 NaN            NaN            NaN
  1554.49        2500.00        24.2790       0.555440        52.1117        23.0538                 NaN            NaN            NaN
  1551.28        2500.00        23.7397       0.549287        52.1914        23.5196                 NaN            NaN            NaN
  1548.08        2500.00        23.1999       0.543126        52.2711        23.9859                 NaN            NaN            NaN
  1544.87        2500.00        22.6595       0.536958        52.3509        24.4527                 NaN            NaN            NaN
  1541.67        2500.00        22.1185       0.530782        52.4307        24.9201                 NaN            NaN            NaN
  1538.46        2500.00        21.5769       0.524598        52.5105        25.3880                 NaN            NaN            NaN
