|6.6.6
Archiving\03_Data\eq/QFM_m4/GRV/GRV_3.tab                                 
           1
T(K)    
  0.000000000000000E+000
  0.000000000000000E+000
           0
           9
T(K)           P(bar)         melt(TH)       pxmn           Sp(TH)         O(HP)          Opx(TH)        Cpx(TH)        Cpx(TH)       
  2000.00        2500.00        99.3192       0.680760                 NaN            NaN            NaN            NaN            NaN
  1996.79        2500.00        99.3192       0.680834                 NaN            NaN            NaN            NaN            NaN
  1993.59        2500.00        99.3191       0.680908                 NaN            NaN            NaN            NaN            NaN
  1990.38        2500.00        99.3190       0.680982                 NaN            NaN            NaN            NaN            NaN
  1987.18        2500.00        99.3189       0.681056                 NaN            NaN            NaN            NaN            NaN
  1983.97        2500.00        99.3189       0.681131                 NaN            NaN            NaN            NaN            NaN
  1980.77        2500.00        99.3188       0.681205                 NaN            NaN            NaN            NaN            NaN
  1977.56        2500.00        99.3187       0.681279                 NaN            NaN            NaN            NaN            NaN
  1974.36        2500.00        99.3186       0.681353                 NaN            NaN            NaN            NaN            NaN
  1971.15        2500.00        99.3186       0.681428                 NaN            NaN            NaN            NaN            NaN
  1967.95        2500.00        99.3185       0.681502                 NaN            NaN            NaN            NaN            NaN
  1964.74        2500.00        99.3184       0.681577                 NaN            NaN            NaN            NaN            NaN
  1961.54        2500.00        99.3183       0.681651                 NaN            NaN            NaN            NaN            NaN
  1958.33        2500.00        99.3183       0.681726                 NaN            NaN            NaN            NaN            NaN
  1955.13        2500.00        99.3182       0.681801                 NaN            NaN            NaN            NaN            NaN
  1951.92        2500.00        99.3181       0.681876                 NaN            NaN            NaN            NaN            NaN
  1948.72        2500.00        99.3180       0.681950                 NaN            NaN            NaN            NaN            NaN
  1945.51        2500.00        99.3180       0.682025                 NaN            NaN            NaN            NaN            NaN
  1942.31        2500.00        99.3179       0.682100                 NaN            NaN            NaN            NaN            NaN
  1939.10        2500.00        99.3178       0.682175                 NaN            NaN            NaN            NaN            NaN
  1935.90        2500.00        99.3177       0.682251                 NaN            NaN            NaN            NaN            NaN
  1932.69        2500.00        99.3177       0.682326                 NaN            NaN            NaN            NaN            NaN
  1929.49        2500.00        99.3176       0.682401                 NaN            NaN            NaN            NaN            NaN
  1926.28        2500.00        99.3175       0.682476                 NaN            NaN            NaN            NaN            NaN
  1923.08        2500.00        99.3174       0.682552                 NaN            NaN            NaN            NaN            NaN
  1919.87        2500.00        99.3174       0.682627                 NaN            NaN            NaN            NaN            NaN
  1916.67        2500.00        99.3173       0.682703                 NaN            NaN            NaN            NaN            NaN
  1913.46        2500.00        99.3172       0.682778                 NaN            NaN            NaN            NaN            NaN
  1910.26        2500.00        99.3171       0.682854                 NaN            NaN            NaN            NaN            NaN
  1907.05        2500.00        99.3171       0.682929                 NaN            NaN            NaN            NaN            NaN
  1903.85        2500.00        99.3170       0.683005                 NaN            NaN            NaN            NaN            NaN
  1900.64        2500.00        99.3169       0.683081                 NaN            NaN            NaN            NaN            NaN
  1897.44        2500.00        99.3168       0.683157                 NaN            NaN            NaN            NaN            NaN
  1894.23        2500.00        99.3168       0.683233                 NaN            NaN            NaN            NaN            NaN
  1891.03        2500.00        99.3167       0.683309                 NaN            NaN            NaN            NaN            NaN
  1887.82        2500.00        99.3166       0.683385                 NaN            NaN            NaN            NaN            NaN
  1884.62        2500.00        99.3165       0.683461                 NaN            NaN            NaN            NaN            NaN
  1881.41        2500.00        99.3165       0.683537                 NaN            NaN            NaN            NaN            NaN
  1878.21        2500.00        99.3164       0.683613                 NaN            NaN            NaN            NaN            NaN
  1875.00        2500.00        99.3163       0.683689                 NaN            NaN            NaN            NaN            NaN
  1871.79        2500.00        99.3162       0.683766                 NaN            NaN            NaN            NaN            NaN
  1868.59        2500.00        99.3162       0.683842                 NaN            NaN            NaN            NaN            NaN
  1865.38        2500.00        99.3161       0.683919                 NaN            NaN            NaN            NaN            NaN
  1862.18        2500.00        99.3160       0.683995                 NaN            NaN            NaN            NaN            NaN
  1858.97        2500.00        99.3159       0.684072                 NaN            NaN            NaN            NaN            NaN
  1855.77        2500.00        99.3159       0.684148                 NaN            NaN            NaN            NaN            NaN
  1852.56        2500.00        99.3158       0.684225                 NaN            NaN            NaN            NaN            NaN
  1849.36        2500.00        99.3157       0.684302                 NaN            NaN            NaN            NaN            NaN
  1846.15        2500.00        99.3156       0.684379                 NaN            NaN            NaN            NaN            NaN
  1842.95        2500.00        99.3155       0.684456                 NaN            NaN            NaN            NaN            NaN
  1839.74        2500.00        99.3155       0.684533                 NaN            NaN            NaN            NaN            NaN
  1836.54        2500.00        99.3154       0.684610                 NaN            NaN            NaN            NaN            NaN
  1833.33        2500.00        99.3153       0.684687                 NaN            NaN            NaN            NaN            NaN
  1830.13        2500.00        99.3152       0.684764                 NaN            NaN            NaN            NaN            NaN
  1826.92        2500.00        99.3152       0.684841                 NaN            NaN            NaN            NaN            NaN
  1823.72        2500.00        99.3151       0.684918                 NaN            NaN            NaN            NaN            NaN
  1820.51        2500.00        99.3150       0.684996                 NaN            NaN            NaN            NaN            NaN
  1817.31        2500.00        99.3130       0.685076       0.194043E-002            NaN            NaN            NaN            NaN
  1814.10        2500.00        99.3025       0.685168       0.123785E-001            NaN            NaN            NaN            NaN
  1810.90        2500.00        99.2892       0.685264       0.255532E-001            NaN            NaN            NaN            NaN
  1807.69        2500.00        99.2759       0.685360       0.387319E-001            NaN            NaN            NaN            NaN
  1804.49        2500.00        99.2630       0.685455       0.515447E-001            NaN            NaN            NaN            NaN
  1801.28        2500.00        99.2501       0.685551       0.643613E-001            NaN            NaN            NaN            NaN
  1798.08        2500.00        99.2372       0.685646       0.771817E-001            NaN            NaN            NaN            NaN
  1794.87        2500.00        99.2243       0.685742       0.900058E-001            NaN            NaN            NaN            NaN
  1791.67        2500.00        99.2118       0.685837       0.102371                 NaN            NaN            NaN            NaN
  1788.46        2500.00        99.1993       0.685932       0.114740                 NaN            NaN            NaN            NaN
  1785.26        2500.00        99.1869       0.686027       0.127113                 NaN            NaN            NaN            NaN
  1782.05        2500.00        99.1744       0.686122       0.139489                 NaN            NaN            NaN            NaN
  1778.85        2500.00        99.1623       0.686217       0.151513                 NaN            NaN            NaN            NaN
  1775.64        2500.00        99.1501       0.686311       0.163541                 NaN            NaN            NaN            NaN
  1772.44        2500.00        98.6209       0.686587       0.175688       0.516786                 NaN            NaN            NaN
  1769.23        2500.00        97.8511       0.686944       0.187710        1.27428                 NaN            NaN            NaN
  1766.03        2500.00        97.0726       0.687303       0.199265        2.04086                 NaN            NaN            NaN
  1762.82        2500.00        96.2933       0.687660       0.210832        2.80820                 NaN            NaN            NaN
  1759.62        2500.00        95.5133       0.688014       0.222410        3.57631                 NaN            NaN            NaN
  1756.41        2500.00        94.7325       0.688367       0.233999        4.34517                 NaN            NaN            NaN
  1753.21        2500.00        93.9509       0.688718       0.245600        5.11477                 NaN            NaN            NaN
  1750.00        2500.00        93.1686       0.689067       0.257212        5.88511                 NaN            NaN            NaN
  1746.79        2500.00        92.3856       0.689413       0.268835        6.65619                 NaN            NaN            NaN
  1743.59        2500.00        91.6018       0.689758       0.280468        7.42799                 NaN            NaN            NaN
  1740.38        2500.00        90.8196       0.690099       0.291203        8.19911                 NaN            NaN            NaN
  1737.18        2500.00        90.0367       0.690438       0.301947        8.97093                 NaN            NaN            NaN
  1733.97        2500.00        89.2531       0.690775       0.312700        9.74346                 NaN            NaN            NaN
  1730.77        2500.00        88.4688       0.691109       0.323463        10.5167                 NaN            NaN            NaN
  1727.56        2500.00        87.6838       0.691441       0.334235        11.2906                 NaN            NaN            NaN
  1724.36        2500.00        86.8981       0.691771       0.345017        12.0651                 NaN            NaN            NaN
  1721.15        2500.00        86.1117       0.692099       0.355808        12.8404                 NaN            NaN            NaN
  1717.95        2500.00        85.3247       0.692424       0.366607        13.6163                 NaN            NaN            NaN
  1714.74        2500.00        84.5598       0.692738       0.376534        14.3709                 NaN            NaN            NaN
  1711.54        2500.00        83.7944       0.693050       0.386469        15.1261                 NaN            NaN            NaN
  1708.33        2500.00        83.0283       0.693359       0.396412        15.8819                 NaN            NaN            NaN
  1705.13        2500.00        82.2617       0.693666       0.406362        16.6383                 NaN            NaN            NaN
  1701.92        2500.00        81.4944       0.693971       0.416319        17.3953                 NaN            NaN            NaN
  1698.72        2500.00        80.7266       0.694273       0.426283        18.1528                 NaN            NaN            NaN
  1695.51        2500.00        79.9583       0.694572       0.436255        18.9109                 NaN            NaN            NaN
  1692.31        2500.00        79.1893       0.694869       0.446233        19.6696                 NaN            NaN            NaN
  1689.10        2500.00        78.4531       0.695151       0.455597        20.3962                 NaN            NaN            NaN
  1685.90        2500.00        77.7163       0.695430       0.464966        21.1233                 NaN            NaN            NaN
  1682.69        2500.00        76.9791       0.695707       0.474341        21.8508                 NaN            NaN            NaN
  1679.49        2500.00        76.2414       0.695981       0.483722        22.5789                 NaN            NaN            NaN
  1676.28        2500.00        75.5237       0.696246       0.492700        23.2873                 NaN            NaN            NaN
  1673.08        2500.00        74.8056       0.696509       0.501684        23.9962                 NaN            NaN            NaN
  1669.87        2500.00        72.9425       0.697870       0.509400        24.3535        1.49668                 NaN            NaN
  1666.67        2500.00        70.8610       0.699462       0.516135        24.6123        3.31111                 NaN            NaN
  1663.46        2500.00        69.1432       0.700798       0.520068        24.8086        4.82734                 NaN            NaN
  1660.26        2500.00        67.4189       0.702137       0.524015        25.0056        6.34931                 NaN            NaN
  1657.05        2500.00        65.6882       0.703480       0.527975        25.2033        7.87702                 NaN            NaN
  1653.85        2500.00        63.9510       0.704825       0.531949        25.4017        9.41052                 NaN            NaN
  1650.64        2500.00        62.2073       0.706174       0.535937        25.6008        10.9498                 NaN            NaN
  1647.44        2500.00        60.4571       0.707526       0.539939        25.8005        12.4949                 NaN            NaN
  1644.23        2500.00        58.7004       0.708881       0.543955        26.0009        14.0459                 NaN            NaN
  1641.03        2500.00        56.9370       0.710239       0.547984        26.2021        15.6027                 NaN            NaN
  1637.82        2500.00        55.6170       0.711293       0.547935        26.3278        16.7960                 NaN            NaN
  1634.62        2500.00        54.2931       0.712349       0.547883        26.4539        17.9928                 NaN            NaN
  1631.41        2500.00        52.9655       0.713406       0.547831        26.5803        19.1930                 NaN            NaN
  1628.21        2500.00        51.6340       0.714466       0.547778        26.7070        20.3968                 NaN            NaN
  1625.00        2500.00        50.2987       0.715526       0.547723        26.8341        21.6040                 NaN            NaN
  1621.79        2500.00        48.9596       0.716589       0.547667        26.9614        22.8147                 NaN            NaN
  1618.59        2500.00        47.6166       0.717653       0.547610        27.0891        24.0290                 NaN            NaN
  1615.38        2500.00        46.2699       0.718719       0.547552        27.2171        25.2467                 NaN            NaN
  1612.18        2500.00        45.1668       0.719622       0.543362        27.3057        26.2645                 NaN            NaN
  1608.97        2500.00        44.0612       0.720526       0.539160        27.3944        27.2847                 NaN            NaN
  1605.77        2500.00        42.9528       0.721431       0.534948        27.4833        28.3075                 NaN            NaN
  1602.56        2500.00        41.8419       0.722338       0.530723        27.5724        29.3327                 NaN            NaN
  1599.36        2500.00        40.7282       0.723245       0.526488        27.6617        30.3603                 NaN            NaN
  1596.15        2500.00        39.6119       0.724154       0.522241        27.7512        31.3905                 NaN            NaN
  1592.95        2500.00        38.4929       0.725064       0.517983        27.8408        32.4232                 NaN            NaN
  1589.74        2500.00        37.3713       0.725975       0.513713        27.9306        33.4584                 NaN            NaN
  1586.54        2500.00        36.3428       0.726828       0.505505        28.0086        34.4163                 NaN            NaN
  1583.33        2500.00        35.3120       0.727681       0.497277        28.0867        35.3763                 NaN            NaN
  1580.13        2500.00        34.2790       0.728536       0.489030        28.1649        36.3385                 NaN            NaN
  1576.92        2500.00        33.2436       0.729391       0.480762        28.2433        37.3029                 NaN            NaN
  1573.72        2500.00        32.2278       0.730236       0.470286        28.3238        38.2478                 NaN            NaN
  1570.51        2500.00        31.0383       0.731219       0.469921        28.3981        38.0605        1.30196                 NaN
  1567.31        2500.00        29.7474       0.732294       0.474114        28.4759        37.3660        3.20428                 NaN
  1564.10        2500.00        28.4529       0.733370       0.478318        28.5539        36.6694        5.11214                 NaN
  1560.90        2500.00        27.1496       0.734485       0.479067        28.6471        36.2003        6.78942                 NaN
  1557.69        2500.00        25.8426       0.735601       0.479817        28.7404        35.7298        8.47177                 NaN
  1554.49        2500.00        24.5318       0.736719       0.480571        28.8340        35.2577        10.1592                 NaN
  1551.28        2500.00        23.2172       0.737839       0.481326        28.9278        34.7841        11.8517                 NaN
  1548.08        2500.00        21.9057       0.738982       0.477593        29.0356        34.6001        13.2421                 NaN
  1544.87        2500.00        20.6459       0.740091       0.471594        29.1415        34.5416        14.4485       0.106987E-001
  1541.67        2500.00        20.6448       0.740111       0.471613        29.1419        34.5421        14.4487       0.106988E-001
  1538.46        2500.00        18.1019       0.742387       0.427972        29.4143        36.3067        12.0515        2.95532     
