|6.6.6
Archiving\03_Data\eqLP/QFM_m4/Y98/Y98_6.tab                               
           1
T(K)    
  0.000000000000000E+000
  0.000000000000000E+000
           0
           3
T(K)           P(bar)         rho,kg/m3     
  2000.00        500.000        3600.76     
  1996.79        500.000        3601.24     
  1993.59        500.000        3601.72     
  1990.38        500.000        3602.21     
  1987.18        500.000        3602.69     
  1983.97        500.000        3603.17     
  1980.77        500.000        3603.66     
  1977.56        500.000        3604.14     
  1974.36        500.000        3604.62     
  1971.15        500.000        3605.11     
  1967.95        500.000        3605.59     
  1964.74        500.000        3606.07     
  1961.54        500.000        3606.55     
  1958.33        500.000        3607.03     
  1955.13        500.000        3607.51     
  1951.92        500.000        3608.00     
  1948.72        500.000        3608.48     
  1945.51        500.000        3608.96     
  1942.31        500.000        3609.44     
  1939.10        500.000        3609.92     
  1935.90        500.000        3610.40     
  1932.69        500.000        3610.88     
  1929.49        500.000        3611.36     
  1926.28        500.000        3611.84     
  1923.08        500.000        3612.32     
  1919.87        500.000        3612.79     
  1916.67        500.000        3613.27     
  1913.46        500.000        3613.75     
  1910.26        500.000        3614.23     
  1907.05        500.000        3614.71     
  1903.85        500.000        3615.19     
  1900.64        500.000        3615.66     
  1897.44        500.000        3616.14     
  1894.23        500.000        3616.62     
  1891.03        500.000        3617.09     
  1887.82        500.000        3617.57     
  1884.62        500.000        3618.05     
  1881.41        500.000        3618.52     
  1878.21        500.000        3619.00     
  1875.00        500.000        3619.48     
  1871.79        500.000        3619.95     
  1868.59        500.000        3620.43     
  1865.38        500.000        3620.90     
  1862.18        500.000        3621.38     
  1858.97        500.000        3621.85     
  1855.77        500.000        3622.33     
  1852.56        500.000        3622.80     
  1849.36        500.000        3623.28     
  1846.15        500.000        3623.75     
  1842.95        500.000        3624.22     
  1839.74        500.000        3624.70     
  1836.54        500.000        3625.17     
  1833.33        500.000        3625.64     
  1830.13        500.000        3626.12     
  1826.92        500.000        3626.59     
  1823.72        500.000        3627.06     
  1820.51        500.000        3627.54     
  1817.31        500.000        3628.01     
  1814.10        500.000        3628.48     
  1810.90        500.000        3628.95     
  1807.69        500.000        3629.42     
  1804.49        500.000        3629.89     
  1801.28        500.000        3630.37     
  1798.08        500.000        3630.84     
  1794.87        500.000        3631.31     
  1791.67        500.000        3631.78     
  1788.46        500.000        3632.25     
  1785.26        500.000        3632.72     
  1782.05        500.000        3633.19     
  1778.85        500.000        3633.66     
  1775.64        500.000        3634.13     
  1772.44        500.000        3634.60     
  1769.23        500.000        3635.07     
  1766.03        500.000        3635.54     
  1762.82        500.000        3636.00     
  1759.62        500.000        3636.47     
  1756.41        500.000        3636.94     
  1753.21        500.000        3637.41     
  1750.00        500.000        3637.88     
  1746.79        500.000        3638.34     
  1743.59        500.000        3638.81     
  1740.38        500.000        3639.28     
  1737.18        500.000        3639.75     
  1733.97        500.000        3640.21     
  1730.77        500.000        3640.68     
  1727.56        500.000        3641.15     
  1724.36        500.000        3641.61     
  1721.15        500.000        3642.08     
  1717.95        500.000        3642.54     
  1714.74        500.000        3643.01     
  1711.54        500.000        3643.48     
  1708.33        500.000        3643.94     
  1705.13        500.000        3644.41     
  1701.92        500.000        3644.87     
  1698.72        500.000        3645.34     
  1695.51        500.000        3645.80     
  1692.31        500.000        3646.26     
  1689.10        500.000        3646.73     
  1685.90        500.000        3647.19     
  1682.69        500.000        3656.42     
  1679.49        500.000        3668.89     
  1676.28        500.000        3680.72     
  1673.08        500.000        3692.23     
  1669.87        500.000        3703.44     
  1666.67        500.000        3714.36     
  1663.46        500.000        3724.62     
  1660.26        500.000        3734.63     
  1657.05        500.000        3744.40     
  1653.85        500.000        3753.94     
  1650.64        500.000        3763.02     
  1647.44        500.000        3590.72     
  1644.23        500.000        3515.62     
  1641.03        500.000        3477.63     
  1637.82        500.000        3457.14     
  1634.62        500.000        3443.41     
  1631.41        500.000        3433.64     
  1628.21        500.000        3426.36     
  1625.00        500.000        3422.04     
  1621.79        500.000        3418.64     
  1618.59        500.000        3416.72     
  1615.38        500.000        3415.19     
  1612.18        500.000        3414.84     
  1608.97        500.000        3414.59     
  1605.77        500.000        3414.42     
  1602.56        500.000        3414.33     
  1599.36        500.000        3414.29     
  1596.15        500.000        3414.30     
  1592.95        500.000        3414.36     
  1589.74        500.000        3414.46     
  1586.54        500.000        3415.19     
  1583.33        500.000        3415.90     
  1580.13        500.000        3416.59     
  1576.92        500.000        3417.27     
  1573.72        500.000        3414.65     
  1570.51        500.000        3403.98     
  1567.31        500.000        3395.32     
  1564.10        500.000        3387.82     
  1560.90        500.000        3382.52     
  1557.69        500.000        3377.80     
  1554.49        500.000        3373.58     
  1551.28        500.000        3369.78     
  1548.08        500.000        3366.34     
  1544.87        500.000        3363.23     
  1541.67        500.000        3360.41     
  1538.46        500.000        3357.84     
  1535.26        500.000        3356.19     
  1532.05        500.000        3354.67     
  1528.85        500.000        3353.27     
  1525.64        500.000        3351.98     
  1522.44        500.000        3350.79     
  1519.23        500.000        3349.68     
  1516.03        500.000        3348.66     
  1512.82        500.000        3347.71     
  1509.62        500.000        3347.06     
  1506.41        500.000        3346.46     
  1503.21        500.000        3345.91     
  1500.00        500.000        3345.40     
  1496.79        500.000        3344.99     
  1493.59        500.000        3344.92     
  1490.38        500.000        3345.08     
  1487.18        500.000        3345.25     
  1483.97        500.000        3345.40     
  1480.77        500.000        3345.55     
  1477.56        500.000        3345.43     
  1474.36        500.000        3344.64     
  1471.15        500.000        3344.08     
  1467.95        500.000        3343.68     
  1464.74        500.000        3344.13     
  1461.54        500.000        3343.49     
  1458.33        500.000        3343.94     
  1455.13        500.000        3343.71     
  1451.92        500.000        3343.99     
  1448.72        500.000        3344.41     
  1445.51        500.000        3344.86     
  1442.31        500.000        3345.40     
  1439.10        500.000        3345.96     
  1435.90        500.000        3340.87     
  1432.69        500.000        3341.32     
  1429.49        500.000        3341.76     
  1426.28        500.000        3342.20     
  1423.08        500.000        3342.65     
  1419.87        500.000        3343.09     
  1416.67        500.000        3343.53     
  1413.46        500.000        3343.97     
  1410.26        500.000        3311.26     
  1407.05        500.000        3311.68     
  1403.85        500.000        3312.11     
  1400.64        500.000        3312.53     
  1397.44        500.000        3312.95     
  1394.23        500.000        3313.38     
  1391.03        500.000        3313.80     
  1387.82        500.000        3314.22     
  1384.62        500.000        3300.60     
  1381.41        500.000        3301.01     
  1378.21        500.000        3301.43     
  1375.00        500.000        3301.84     
  1371.79        500.000        3302.26     
  1368.59        500.000        3302.67     
  1365.38        500.000        3303.08     
  1362.18        500.000        3303.50     
  1358.97        500.000        3293.80     
  1355.77        500.000        3294.21     
  1352.56        500.000        3294.61     
  1349.36        500.000        3295.02     
  1346.15        500.000        3295.43     
  1342.95        500.000        3295.84     
  1339.74        500.000        3296.25     
  1336.54        500.000        3296.65     
  1333.33        500.000        3288.59     
  1330.13        500.000        3289.00     
  1326.92        500.000        3289.40     
  1323.72        500.000        3289.80     
  1320.51        500.000        3286.41     
  1317.31        500.000        3286.54     
  1314.10        500.000        3286.87     
  1310.90        500.000        3287.27     
  1307.69        500.000        3287.52     
  1304.49        500.000        3287.92     
  1301.28        500.000        3288.32     
  1298.08        500.000        3288.72     
  1294.87        500.000        3289.12     
  1291.67        500.000        3289.52     
  1288.46        500.000        3289.91     
  1285.26        500.000        3290.31     
  1282.05        500.000        3290.19     
  1278.85        500.000        3290.59     
  1275.64        500.000        3290.99     
  1272.44        500.000        3291.38     
  1269.23        500.000        3291.78     
  1266.03        500.000        3292.17     
  1262.82        500.000        3292.57     
  1259.62        500.000        3292.96     
  1256.41        500.000        3292.87     
  1253.21        500.000        3293.27     
  1250.00        500.000        3293.66     
  1246.79        500.000        3294.05     
  1243.59        500.000        3294.45     
  1240.38        500.000        3294.84     
  1237.18        500.000        3295.23     
  1233.97        500.000        3295.62     
  1230.77        500.000        3295.57     
  1227.56        500.000        3295.96     
  1224.36        500.000        3296.35     
  1221.15        500.000        3296.74     
  1217.95        500.000        3297.13     
  1214.74        500.000        3297.52     
  1211.54        500.000        3297.91     
  1208.33        500.000        3298.30     
  1205.13        500.000        3298.29     
  1201.92        500.000        3298.68     
  1198.72        500.000        3299.07     
  1195.51        500.000        3299.46     
  1192.31        500.000        3299.85     
  1189.10        500.000        3300.24     
  1185.90        500.000        3300.62     
  1182.69        500.000        3301.01     
  1179.49        500.000        3301.04     
  1176.28        500.000        3301.42     
  1173.08        500.000        3301.81     
  1169.87        500.000        3302.20     
  1166.67        500.000        3302.58     
  1163.46        500.000        3302.97     
  1160.26        500.000        3303.35     
  1157.05        500.000        3303.74     
  1153.85        500.000        3303.74     
  1150.64        500.000        3304.12     
  1147.44        500.000        3304.51     
  1144.23        500.000        3304.89     
  1141.03        500.000        3305.28     
  1137.82        500.000        3305.66     
  1134.62        500.000        3306.04     
  1131.41        500.000        3306.42     
  1128.21        500.000        3306.49     
  1125.00        500.000        3306.87     
  1121.79        500.000        3307.26     
  1118.59        500.000        3307.64     
  1115.38        500.000        3308.02     
  1112.18        500.000        3308.40     
  1108.97        500.000        3308.78     
  1105.77        500.000        3309.16     
  1102.56        500.000        3309.24     
  1099.36        500.000        3309.62     
  1096.15        500.000        3310.00     
  1092.95        500.000        3310.38     
  1089.74        500.000        3310.76     
  1086.54        500.000        3311.13     
  1083.33        500.000        3311.51     
  1080.13        500.000        3311.89     
  1076.92        500.000        3311.98     
  1073.72        500.000        3312.35     
  1070.51        500.000        3312.73     
  1067.31        500.000        3313.11     
  1064.10        500.000        3313.48     
  1060.90        500.000        3313.86     
  1057.69        500.000        3314.23     
  1054.49        500.000        3314.61     
  1051.28        500.000        3314.71     
  1048.08        500.000        3315.09     
  1044.87        500.000        3315.46     
  1041.67        500.000        3315.84     
  1038.46        500.000        3316.21     
  1035.26        500.000        3316.58     
  1032.05        500.000        3316.96     
  1028.85        500.000        3317.33     
  1025.64        500.000        3317.43     
  1022.44        500.000        3317.81     
  1019.23        500.000        3318.18     
  1016.03        500.000        3318.55     
  1012.82        500.000        3318.92     
  1009.62        500.000        3319.29     
  1006.41        500.000        3319.66     
  1003.21        500.000        3320.03     
  1000.00        500.000        3320.16     
