|6.6.6
Archiving\03_Data\fracLP/QFM_m2/TIS/TIS_6.tab                             
           1
T(K)    
  0.000000000000000E+000
  0.000000000000000E+000
           0
           3
T(K)           P(bar)         rho,kg/m3     
  2000.00        500.000        3584.12     
  1997.49        500.000        3584.50     
  1994.99        500.000        3584.87     
  1992.48        500.000        3585.25     
  1989.97        500.000        3585.62     
  1987.47        500.000        3586.00     
  1984.96        500.000        3586.37     
  1982.46        500.000        3586.75     
  1979.95        500.000        3587.12     
  1977.44        500.000        3587.50     
  1974.94        500.000        3587.87     
  1972.43        500.000        3588.25     
  1969.92        500.000        3588.62     
  1967.42        500.000        3589.00     
  1964.91        500.000        3589.37     
  1962.41        500.000        3589.75     
  1959.90        500.000        3590.12     
  1957.39        500.000        3590.49     
  1954.89        500.000        3590.87     
  1952.38        500.000        3591.24     
  1949.87        500.000        3591.61     
  1947.37        500.000        3591.99     
  1944.86        500.000        3592.36     
  1942.36        500.000        3592.73     
  1939.85        500.000        3593.11     
  1937.34        500.000        3593.48     
  1934.84        500.000        3593.85     
  1932.33        500.000        3594.22     
  1929.82        500.000        3594.60     
  1927.32        500.000        3594.97     
  1924.81        500.000        3595.34     
  1922.31        500.000        3595.71     
  1919.80        500.000        3596.08     
  1917.29        500.000        3596.46     
  1914.79        500.000        3596.83     
  1912.28        500.000        3597.20     
  1909.77        500.000        3597.57     
  1907.27        500.000        3597.94     
  1904.76        500.000        3598.31     
  1902.26        500.000        3598.68     
  1899.75        500.000        3599.05     
  1897.24        500.000        3599.42     
  1894.74        500.000        3599.79     
  1892.23        500.000        3600.17     
  1889.72        500.000        3600.54     
  1887.22        500.000        3600.91     
  1884.71        500.000        3601.28     
  1882.21        500.000        3601.65     
  1879.70        500.000        3602.02     
  1877.19        500.000        3602.39     
  1874.69        500.000        3602.75     
  1872.18        500.000        3603.12     
  1869.67        500.000        3603.49     
  1867.17        500.000        3603.86     
  1864.66        500.000        3604.23     
  1862.16        500.000        3604.60     
  1859.65        500.000        3604.97     
  1857.14        500.000        3605.34     
  1854.64        500.000        3605.71     
  1852.13        500.000        3606.07     
  1849.62        500.000        3606.44     
  1847.12        500.000        3606.81     
  1844.61        500.000        3607.18     
  1842.11        500.000        3607.55     
  1839.60        500.000        3607.91     
  1837.09        500.000        3608.28     
  1834.59        500.000        3608.65     
  1832.08        500.000        3609.02     
  1829.57        500.000        3609.38     
  1827.07        500.000        3609.75     
  1824.56        500.000        3610.12     
  1822.06        500.000        3610.49     
  1819.55        500.000        3610.85     
  1817.04        500.000        3611.22     
  1814.54        500.000        3611.59     
  1812.03        500.000        3611.95     
  1809.52        500.000        3612.32     
  1807.02        500.000        3612.68     
  1804.51        500.000        3613.05     
  1802.01        500.000        3613.42     
  1799.50        500.000        3613.78     
  1796.99        500.000        3614.15     
  1794.49        500.000        3614.51     
  1791.98        500.000        3614.88     
  1789.47        500.000        3615.24     
  1786.97        500.000        3615.61     
  1784.46        500.000        3615.97     
  1781.95        500.000        3616.34     
  1779.45        500.000        3616.70     
  1776.94        500.000        3617.07     
  1774.44        500.000        3617.43     
  1771.93        500.000        3617.80     
  1769.42        500.000        3618.16     
  1766.92        500.000        3618.53     
  1764.41        500.000        3618.89     
  1761.90        500.000        3619.25     
  1759.40        500.000        3619.62     
  1756.89        500.000        3619.98     
  1754.39        500.000        3620.34     
  1751.88        500.000        3620.71     
  1749.37        500.000        3621.07     
  1746.87        500.000        3621.43     
  1744.36        500.000        3621.80     
  1741.85        500.000        3622.16     
  1739.35        500.000        3622.52     
  1736.84        500.000        3622.89     
  1734.34        500.000        3623.25     
  1731.83        500.000        3623.61     
  1729.32        500.000        3623.97     
  1726.82        500.000        3624.33     
  1724.31        500.000        3624.70     
  1721.80        500.000        3625.06     
  1719.30        500.000        3625.42     
  1716.79        500.000        3625.78     
  1714.29        500.000        3626.14     
  1711.78        500.000        3626.51     
  1709.27        500.000        3626.87     
  1706.77        500.000        3627.23     
  1704.26        500.000        3627.59     
  1701.75        500.000        3627.95     
  1699.25        500.000        3628.31     
  1696.74        500.000        3628.67     
  1694.24        500.000        3629.03     
  1691.73        500.000        3629.39     
  1689.22        500.000        3629.75     
  1686.72        500.000        3630.11     
  1684.21        500.000        3630.47     
  1681.70        500.000        3630.83     
  1679.20        500.000        3631.19     
  1676.69        500.000        3633.27     
  1674.19        500.000        3637.92     
  1671.68        500.000        3641.32     
  1669.17        500.000        3641.62     
  1666.67        500.000        3576.74     
  1664.16        500.000        4511.64     
  1661.65        500.000        4511.86     
  1659.15        500.000        4512.03     
  1656.64        500.000        4513.00     
  1654.14        500.000        4512.63     
  1651.63        500.000        4513.19     
  1649.12        500.000        4512.51     
  1646.62        500.000        4512.08     
  1644.11        500.000        4513.36     
  1641.60        500.000        3397.73     
  1639.10        500.000        3395.64     
  1636.59        500.000        3396.60     
  1634.09        500.000        3400.48     
  1631.58        500.000        3402.39     
  1629.07        500.000        3404.64     
  1626.57        500.000        3406.95     
  1624.06        500.000        3409.67     
  1621.55        500.000        3410.78     
  1619.05        500.000        3413.41     
  1616.54        500.000        3415.85     
  1614.04        500.000        3417.06     
  1611.53        500.000        3419.90     
  1609.02        500.000        3421.62     
  1606.52        500.000        3423.77     
  1604.01        500.000        3426.17     
  1601.50        500.000        3428.27     
  1599.00        500.000        3430.72     
  1596.49        500.000        3431.16     
  1593.98        500.000        3434.23     
  1591.48        500.000        3436.83     
  1588.97        500.000        3439.36     
  1586.47        500.000        3440.54     
  1583.96        500.000        3443.24     
  1581.45        500.000        3445.69     
  1578.95        500.000        3447.43     
  1576.44        500.000        3449.94     
  1573.93        500.000        3452.44     
  1571.43        500.000        3453.70     
  1568.92        500.000        3456.42     
  1566.42        500.000        3453.08     
  1563.91        500.000        3460.26     
  1561.40        500.000        3462.85     
  1558.90        500.000        3464.95     
  1556.39        500.000        3466.48     
  1553.88        500.000        3469.72     
  1551.38        500.000        3471.82     
  1548.87        500.000        3473.09     
  1546.37        500.000        3475.20     
  1543.86        500.000        3478.07     
  1541.35        500.000        3479.66     
  1538.85        500.000        3482.35     
  1536.34        500.000        3481.76     
  1533.83        500.000        3486.60     
  1531.33        500.000        3488.39     
  1528.82        500.000        3490.98     
  1526.32        500.000        3492.32     
  1523.81        500.000        3495.36     
  1521.30        500.000        3497.50     
  1518.80        500.000        3498.35     
  1516.29        500.000        3501.49     
  1513.78        500.000        3503.62     
  1511.28        500.000        3506.23     
  1508.77        500.000        3508.34     
  1506.27        500.000        3511.00     
  1503.76        500.000        3382.11     
  1501.25        500.000        3319.72     
  1498.75        500.000        3320.88     
  1496.24        500.000        3322.07     
  1493.73        500.000        3329.74     
  1491.23        500.000        3324.14     
  1488.72        500.000        3324.47     
  1486.22        500.000        3325.67     
  1483.71        500.000        3328.29     
  1481.20        500.000        3316.08     
  1478.70        500.000        3314.64     
  1476.19        500.000        3315.93     
  1473.68        500.000        3317.58     
  1471.18        500.000        3320.29     
  1468.67        500.000        3319.64     
  1466.17        500.000        3297.98     
  1463.66        500.000        3300.41     
  1461.15        500.000        3303.19     
  1458.65        500.000        3307.42     
  1456.14        500.000        3308.10     
  1453.63        500.000        3311.23     
  1451.13        500.000        3315.76     
  1448.62        500.000        3318.21     
  1446.12        500.000        3320.65     
  1443.61        500.000        3323.39     
  1441.10        500.000        3325.77     
  1438.60        500.000        3328.41     
  1436.09        500.000        3330.76     
  1433.58        500.000        3333.51     
  1431.08        500.000        3335.85     
  1428.57        500.000        3338.82     
  1426.07        500.000        3341.37     
  1423.56        500.000        3343.97     
  1421.05        500.000        3346.51     
  1418.55        500.000        3349.38     
  1416.04        500.000        3351.81     
  1413.53        500.000        3354.76     
  1411.03        500.000        3357.47     
  1408.52        500.000        3360.08     
  1406.02        500.000        3363.05     
  1403.51        500.000        3365.84     
  1401.00        500.000        3202.43     
  1398.50        500.000        3174.05     
  1395.99        500.000        3178.05     
  1393.48        500.000        3181.27     
  1390.98        500.000        3184.81     
  1388.47        500.000        3188.56     
  1385.96        500.000        3192.10     
  1383.46        500.000        3196.07     
  1380.95        500.000        3199.83     
  1378.45        500.000        3203.55     
  1375.94        500.000        3207.34     
  1373.43        500.000        3230.31     
  1370.93        500.000        3246.67     
  1368.42        500.000        3251.62     
  1365.91        500.000        3256.34     
  1363.41        500.000        3261.13     
  1360.90        500.000        3265.67     
  1358.40        500.000        3270.06     
  1355.89        500.000        3273.53     
  1353.38        500.000        3277.45     
  1350.88        500.000        3281.57     
  1348.37        500.000        3285.99     
  1345.86        500.000        3289.57     
  1343.36        500.000        3293.11     
  1340.85        500.000        3297.87     
  1338.35        500.000        3301.03     
  1335.84        500.000        3304.91     
  1333.33        500.000        3308.40     
  1330.83        500.000        3312.28     
  1328.32        500.000        3315.72     
  1325.81        500.000        3321.09     
  1323.31        500.000        3361.76     
  1320.80        500.000        3367.53     
  1318.30        500.000        3369.78     
  1315.79        500.000        3372.57     
  1313.28        500.000        3374.88     
  1310.78        500.000        3376.67     
  1308.27        500.000        3380.48     
  1305.76        500.000        3381.72     
  1303.26        500.000        3383.41     
  1300.75        500.000        3385.78     
  1298.25        500.000        3386.71     
  1295.74        500.000        3390.54     
  1293.23        500.000        3390.78     
  1290.73        500.000        3392.89     
  1288.22        500.000        3394.10     
  1285.71        500.000        3396.13     
  1283.21        500.000        3397.74     
  1280.70        500.000        3398.77     
  1278.20        500.000        3400.54     
  1275.69        500.000        3400.87     
  1273.18        500.000        3401.99     
  1270.68        500.000        3403.44     
  1268.17        500.000        3404.62     
  1265.66        500.000        3405.38     
  1263.16        500.000        3406.23     
  1260.65        500.000        2898.65     
  1258.15        500.000        2883.12     
  1255.64        500.000        2884.53     
  1253.13        500.000        2886.14     
  1250.63        500.000        2888.08     
  1248.12        500.000        2889.32     
  1245.61        500.000        2890.11     
  1243.11        500.000        2890.75     
  1240.60        500.000        2891.18     
  1238.10        500.000        2891.22     
  1235.59        500.000        2890.85     
  1233.08        500.000        2890.69     
  1230.58        500.000        2890.10     
  1228.07        500.000        2889.09     
  1225.56        500.000        2888.52     
  1223.06        500.000        2887.49     
  1220.55        500.000        2885.19     
  1218.05        500.000        2885.14     
  1215.54        500.000        2697.70     
  1213.03        500.000        2692.91     
  1210.53        500.000        2690.53     
  1208.02        500.000        2691.89     
  1205.51        500.000        2688.42     
  1203.01        500.000        2687.23     
  1200.50        500.000        2685.39     
  1197.99        500.000        2674.97     
  1195.49        500.000        2677.45     
  1192.98        500.000        2666.47     
  1190.48        500.000        2662.79     
  1187.97        500.000        2635.93     
  1185.46        500.000        2638.16     
  1182.96        500.000        2638.39     
  1180.45        500.000        2638.46     
  1177.94        500.000        2638.51     
  1175.44        500.000        2638.63     
  1172.93        500.000        2638.74     
  1170.43        500.000        2638.84     
  1167.92        500.000        2638.98     
  1165.41        500.000        2639.09     
  1162.91        500.000        2639.18     
  1160.40        500.000        2639.30     
  1157.89        500.000        2639.43     
  1155.39        500.000        2639.51     
  1152.88        500.000        2639.65     
  1150.38        500.000        2639.74     
  1147.87        500.000        2639.88     
  1145.36        500.000        2639.98     
  1142.86        500.000        2636.63     
  1140.35        500.000        2640.23     
  1137.84        500.000        2640.35     
  1135.34        500.000        2637.51     
  1132.83        500.000        2637.43     
  1130.33        500.000        2637.28     
  1127.82        500.000        2637.13     
  1125.31        500.000        2637.19     
  1122.81        500.000        2637.06     
  1120.30        500.000        2637.44     
  1117.79        500.000        2637.53     
  1115.29        500.000        2637.53     
  1112.78        500.000        2637.32     
  1110.28        500.000        2637.42     
  1107.77        500.000        2637.39     
  1105.26        500.000        2637.42     
  1102.76        500.000        2637.53     
  1100.25        500.000        2637.64     
  1097.74        500.000        2637.75     
  1095.24        500.000        2637.86     
  1092.73        500.000        2637.96     
  1090.23        500.000        2638.07     
  1087.72        500.000        2638.01     
  1085.21        500.000        2638.11     
  1082.71        500.000        2638.22     
  1080.20        500.000        2638.33     
  1077.69        500.000        2638.44     
  1075.19        500.000        2638.60     
  1072.68        500.000        2638.66     
  1070.18        500.000        2638.42     
  1067.67        500.000        2638.53     
  1065.16        500.000        2638.64     
  1062.66        500.000        2639.01     
  1060.15        500.000        2638.86     
  1057.64        500.000        2638.96     
  1055.14        500.000        2639.07     
  1052.63        500.000        2639.18     
  1050.13        500.000        2639.22     
  1047.62        500.000        2639.33     
  1045.11        500.000        2639.59     
  1042.61        500.000        2639.68     
  1040.10        500.000        2639.65     
  1037.59        500.000        2639.65     
  1035.09        500.000        2639.94     
  1032.58        500.000        2640.02     
  1030.08        500.000        2640.11     
  1027.57        500.000        2640.19     
  1025.06        500.000        2640.29     
  1022.56        500.000        2640.38     
  1020.05        500.000        2640.46     
  1017.54        500.000        2640.55     
  1015.04        500.000        2640.64     
  1012.53        500.000        2640.72     
  1010.03        500.000        2640.81     
  1007.52        500.000        2640.89     
  1005.01        500.000        2640.98     
  1002.51        500.000        2641.07     
  1000.00        500.000        2641.16     
