|6.6.6
Archiving\03_Data\eqLP/QFM_m3.5/Y98/Y98_6.tab                             
           1
T(K)    
  0.000000000000000E+000
  0.000000000000000E+000
           0
           3
T(K)           P(bar)         rho,kg/m3     
  2000.00        500.000        3600.76     
  1996.79        500.000        3601.24     
  1993.59        500.000        3601.72     
  1990.38        500.000        3602.21     
  1987.18        500.000        3602.69     
  1983.97        500.000        3603.17     
  1980.77        500.000        3603.66     
  1977.56        500.000        3604.14     
  1974.36        500.000        3604.62     
  1971.15        500.000        3605.11     
  1967.95        500.000        3605.59     
  1964.74        500.000        3606.07     
  1961.54        500.000        3606.55     
  1958.33        500.000        3607.03     
  1955.13        500.000        3607.51     
  1951.92        500.000        3608.00     
  1948.72        500.000        3608.48     
  1945.51        500.000        3608.96     
  1942.31        500.000        3609.44     
  1939.10        500.000        3609.92     
  1935.90        500.000        3610.40     
  1932.69        500.000        3610.88     
  1929.49        500.000        3611.36     
  1926.28        500.000        3611.84     
  1923.08        500.000        3612.32     
  1919.87        500.000        3612.79     
  1916.67        500.000        3613.27     
  1913.46        500.000        3613.75     
  1910.26        500.000        3614.23     
  1907.05        500.000        3614.71     
  1903.85        500.000        3615.19     
  1900.64        500.000        3615.66     
  1897.44        500.000        3616.14     
  1894.23        500.000        3616.62     
  1891.03        500.000        3617.09     
  1887.82        500.000        3617.57     
  1884.62        500.000        3618.05     
  1881.41        500.000        3618.52     
  1878.21        500.000        3619.00     
  1875.00        500.000        3619.48     
  1871.79        500.000        3619.95     
  1868.59        500.000        3620.43     
  1865.38        500.000        3620.90     
  1862.18        500.000        3621.38     
  1858.97        500.000        3621.85     
  1855.77        500.000        3622.33     
  1852.56        500.000        3622.80     
  1849.36        500.000        3623.28     
  1846.15        500.000        3623.75     
  1842.95        500.000        3624.22     
  1839.74        500.000        3624.70     
  1836.54        500.000        3625.17     
  1833.33        500.000        3625.64     
  1830.13        500.000        3626.12     
  1826.92        500.000        3626.59     
  1823.72        500.000        3627.06     
  1820.51        500.000        3627.54     
  1817.31        500.000        3628.01     
  1814.10        500.000        3628.48     
  1810.90        500.000        3628.95     
  1807.69        500.000        3629.42     
  1804.49        500.000        3629.89     
  1801.28        500.000        3630.37     
  1798.08        500.000        3630.84     
  1794.87        500.000        3631.31     
  1791.67        500.000        3631.78     
  1788.46        500.000        3632.25     
  1785.26        500.000        3632.72     
  1782.05        500.000        3633.19     
  1778.85        500.000        3633.66     
  1775.64        500.000        3634.13     
  1772.44        500.000        3634.60     
  1769.23        500.000        3635.07     
  1766.03        500.000        3635.54     
  1762.82        500.000        3636.00     
  1759.62        500.000        3636.47     
  1756.41        500.000        3636.94     
  1753.21        500.000        3637.41     
  1750.00        500.000        3637.88     
  1746.79        500.000        3638.34     
  1743.59        500.000        3638.81     
  1740.38        500.000        3639.28     
  1737.18        500.000        3639.75     
  1733.97        500.000        3640.21     
  1730.77        500.000        3640.68     
  1727.56        500.000        3641.15     
  1724.36        500.000        3641.61     
  1721.15        500.000        3642.08     
  1717.95        500.000        3642.54     
  1714.74        500.000        3643.01     
  1711.54        500.000        3643.48     
  1708.33        500.000        3643.94     
  1705.13        500.000        3644.41     
  1701.92        500.000        3644.87     
  1698.72        500.000        3645.34     
  1695.51        500.000        3645.80     
  1692.31        500.000        3646.26     
  1689.10        500.000        3646.73     
  1685.90        500.000        3647.84     
  1682.69        500.000        3659.67     
  1679.49        500.000        3671.20     
  1676.28        500.000        3682.98     
  1673.08        500.000        3694.43     
  1669.87        500.000        3705.59     
  1666.67        500.000        3716.45     
  1663.46        500.000        3726.64     
  1660.26        500.000        3736.58     
  1657.05        500.000        3746.29     
  1653.85        500.000        3755.76     
  1650.64        500.000        3727.22     
  1647.44        500.000        3564.13     
  1644.23        500.000        3502.20     
  1641.03        500.000        3469.14     
  1637.82        500.000        3449.77     
  1634.62        500.000        3437.61     
  1631.41        500.000        3431.18     
  1628.21        500.000        3426.14     
  1625.00        500.000        3422.73     
  1621.79        500.000        3420.01     
  1618.59        500.000        3417.80     
  1615.38        500.000        3416.00     
  1612.18        500.000        3415.44     
  1608.97        500.000        3415.00     
  1605.77        500.000        3414.68     
  1602.56        500.000        3414.44     
  1599.36        500.000        3414.29     
  1596.15        500.000        3414.19     
  1592.95        500.000        3414.15     
  1589.74        500.000        3414.16     
  1586.54        500.000        3414.84     
  1583.33        500.000        3415.50     
  1580.13        500.000        3416.14     
  1576.92        500.000        3416.78     
  1573.72        500.000        3413.97     
  1570.51        500.000        3403.05     
  1567.31        500.000        3394.38     
  1564.10        500.000        3386.88     
  1560.90        500.000        3381.54     
  1557.69        500.000        3376.78     
  1554.49        500.000        3372.53     
  1551.28        500.000        3368.71     
  1548.08        500.000        3365.26     
  1544.87        500.000        3362.14     
  1541.67        500.000        3359.31     
  1538.46        500.000        3356.74     
  1535.26        500.000        3355.11     
  1532.05        500.000        3353.61     
  1528.85        500.000        3352.23     
  1525.64        500.000        3350.95     
  1522.44        500.000        3349.77     
  1519.23        500.000        3348.68     
  1516.03        500.000        3347.67     
  1512.82        500.000        3346.74     
  1509.62        500.000        3346.08     
  1506.41        500.000        3345.48     
  1503.21        500.000        3344.92     
  1500.00        500.000        3344.41     
  1496.79        500.000        3344.14     
  1493.59        500.000        3343.89     
  1490.38        500.000        3344.06     
  1487.18        500.000        3344.23     
  1483.97        500.000        3344.44     
  1480.77        500.000        3344.65     
  1477.56        500.000        3344.89     
  1474.36        500.000        3344.17     
  1471.15        500.000        3343.66     
  1467.95        500.000        3343.19     
  1464.74        500.000        3343.64     
  1461.54        500.000        3342.94     
  1458.33        500.000        3343.39     
  1455.13        500.000        3343.84     
  1451.92        500.000        3344.29     
  1448.72        500.000        3343.82     
  1445.51        500.000        3344.31     
  1442.31        500.000        3344.84     
  1439.10        500.000        3345.41     
  1435.90        500.000        3342.26     
  1432.69        500.000        3342.70     
  1429.49        500.000        3343.15     
  1426.28        500.000        3343.59     
  1423.08        500.000        3344.03     
  1419.87        500.000        3344.48     
  1416.67        500.000        3344.92     
  1413.46        500.000        3345.36     
  1410.26        500.000        3311.94     
  1407.05        500.000        3312.37     
  1403.85        500.000        3312.79     
  1400.64        500.000        3313.22     
  1397.44        500.000        3313.64     
  1394.23        500.000        3314.07     
  1391.03        500.000        3314.49     
  1387.82        500.000        3314.91     
  1384.62        500.000        3301.18     
  1381.41        500.000        3301.60     
  1378.21        500.000        3302.01     
  1375.00        500.000        3302.43     
  1371.79        500.000        3302.84     
  1368.59        500.000        3303.26     
  1365.38        500.000        3303.67     
  1362.18        500.000        3304.09     
  1358.97        500.000        3294.33     
  1355.77        500.000        3294.74     
  1352.56        500.000        3295.15     
  1349.36        500.000        3295.55     
  1346.15        500.000        3295.96     
  1342.95        500.000        3296.37     
  1339.74        500.000        3296.78     
  1336.54        500.000        3297.19     
  1333.33        500.000        3289.06     
  1330.13        500.000        3289.46     
  1326.92        500.000        3289.87     
  1323.72        500.000        3290.27     
  1320.51        500.000        3286.85     
  1317.31        500.000        3286.91     
  1314.10        500.000        3287.25     
  1310.90        500.000        3287.65     
  1307.69        500.000        3287.90     
  1304.49        500.000        3288.30     
  1301.28        500.000        3288.69     
  1298.08        500.000        3289.09     
  1294.87        500.000        3289.49     
  1291.67        500.000        3289.89     
  1288.46        500.000        3290.29     
  1285.26        500.000        3290.68     
  1282.05        500.000        3290.53     
  1278.85        500.000        3290.93     
  1275.64        500.000        3291.32     
  1272.44        500.000        3291.72     
  1269.23        500.000        3292.12     
  1266.03        500.000        3292.51     
  1262.82        500.000        3292.91     
  1259.62        500.000        3293.30     
  1256.41        500.000        3293.19     
  1253.21        500.000        3293.58     
  1250.00        500.000        3293.98     
  1246.79        500.000        3294.37     
  1243.59        500.000        3294.76     
  1240.38        500.000        3295.16     
  1237.18        500.000        3295.55     
  1233.97        500.000        3295.94     
  1230.77        500.000        3295.87     
  1227.56        500.000        3296.27     
  1224.36        500.000        3296.66     
  1221.15        500.000        3297.05     
  1217.95        500.000        3297.44     
  1214.74        500.000        3297.83     
  1211.54        500.000        3298.22     
  1208.33        500.000        3298.61     
  1205.13        500.000        3298.57     
  1201.92        500.000        3298.96     
  1198.72        500.000        3299.35     
  1195.51        500.000        3299.74     
  1192.31        500.000        3300.13     
  1189.10        500.000        3300.51     
  1185.90        500.000        3300.90     
  1182.69        500.000        3301.29     
  1179.49        500.000        3301.29     
  1176.28        500.000        3301.67     
  1173.08        500.000        3302.06     
  1169.87        500.000        3302.45     
  1166.67        500.000        3302.83     
  1163.46        500.000        3303.22     
  1160.26        500.000        3303.60     
  1157.05        500.000        3303.99     
  1153.85        500.000        3303.99     
  1150.64        500.000        3304.38     
  1147.44        500.000        3304.76     
  1144.23        500.000        3305.15     
  1141.03        500.000        3305.53     
  1137.82        500.000        3305.91     
  1134.62        500.000        3306.29     
  1131.41        500.000        3306.68     
  1128.21        500.000        3306.71     
  1125.00        500.000        3307.09     
  1121.79        500.000        3307.47     
  1118.59        500.000        3307.86     
  1115.38        500.000        3308.24     
  1112.18        500.000        3308.62     
  1108.97        500.000        3309.00     
  1105.77        500.000        3309.38     
  1102.56        500.000        3309.43     
  1099.36        500.000        3309.81     
  1096.15        500.000        3310.19     
  1092.95        500.000        3310.57     
  1089.74        500.000        3310.95     
  1086.54        500.000        3311.32     
  1083.33        500.000        3311.70     
  1080.13        500.000        3312.08     
  1076.92        500.000        3312.16     
  1073.72        500.000        3312.53     
  1070.51        500.000        3312.91     
  1067.31        500.000        3313.29     
  1064.10        500.000        3313.66     
  1060.90        500.000        3314.04     
  1057.69        500.000        3314.41     
  1054.49        500.000        3314.79     
  1051.28        500.000        3314.89     
  1048.08        500.000        3315.26     
  1044.87        500.000        3315.64     
  1041.67        500.000        3316.01     
  1038.46        500.000        3316.39     
  1035.26        500.000        3316.76     
  1032.05        500.000        3317.13     
  1028.85        500.000        3317.50     
  1025.64        500.000        3317.59     
  1022.44        500.000        3317.96     
  1019.23        500.000        3318.33     
  1016.03        500.000        3318.70     
  1012.82        500.000        3319.07     
  1009.62        500.000        3319.45     
  1006.41        500.000        3319.82     
  1003.21        500.000        3320.19     
  1000.00        500.000        3320.30     
