|6.6.6
Archiving\03_Data\eqLP/QFM_m1.25/Y98/Y98_6.tab                            
           1
T(K)    
  0.000000000000000E+000
  0.000000000000000E+000
           0
           3
T(K)           P(bar)         rho,kg/m3     
  2000.00        500.000        3600.76     
  1996.79        500.000        3601.24     
  1993.59        500.000        3601.72     
  1990.38        500.000        3602.21     
  1987.18        500.000        3602.69     
  1983.97        500.000        3603.17     
  1980.77        500.000        3603.66     
  1977.56        500.000        3604.14     
  1974.36        500.000        3604.62     
  1971.15        500.000        3605.11     
  1967.95        500.000        3605.59     
  1964.74        500.000        3606.07     
  1961.54        500.000        3606.55     
  1958.33        500.000        3607.03     
  1955.13        500.000        3607.51     
  1951.92        500.000        3608.00     
  1948.72        500.000        3608.48     
  1945.51        500.000        3608.96     
  1942.31        500.000        3609.44     
  1939.10        500.000        3609.92     
  1935.90        500.000        3610.40     
  1932.69        500.000        3610.88     
  1929.49        500.000        3611.36     
  1926.28        500.000        3611.84     
  1923.08        500.000        3612.32     
  1919.87        500.000        3612.79     
  1916.67        500.000        3613.27     
  1913.46        500.000        3613.75     
  1910.26        500.000        3614.23     
  1907.05        500.000        3614.71     
  1903.85        500.000        3615.19     
  1900.64        500.000        3615.66     
  1897.44        500.000        3616.14     
  1894.23        500.000        3616.62     
  1891.03        500.000        3617.09     
  1887.82        500.000        3617.57     
  1884.62        500.000        3618.05     
  1881.41        500.000        3618.52     
  1878.21        500.000        3619.00     
  1875.00        500.000        3619.48     
  1871.79        500.000        3619.95     
  1868.59        500.000        3620.43     
  1865.38        500.000        3620.90     
  1862.18        500.000        3621.38     
  1858.97        500.000        3621.85     
  1855.77        500.000        3622.33     
  1852.56        500.000        3622.80     
  1849.36        500.000        3623.28     
  1846.15        500.000        3623.75     
  1842.95        500.000        3624.22     
  1839.74        500.000        3624.70     
  1836.54        500.000        3625.17     
  1833.33        500.000        3625.64     
  1830.13        500.000        3626.12     
  1826.92        500.000        3626.59     
  1823.72        500.000        3627.06     
  1820.51        500.000        3627.54     
  1817.31        500.000        3628.01     
  1814.10        500.000        3628.48     
  1810.90        500.000        3628.95     
  1807.69        500.000        3629.42     
  1804.49        500.000        3629.89     
  1801.28        500.000        3630.37     
  1798.08        500.000        3630.84     
  1794.87        500.000        3631.31     
  1791.67        500.000        3631.78     
  1788.46        500.000        3632.25     
  1785.26        500.000        3632.72     
  1782.05        500.000        3633.19     
  1778.85        500.000        3633.66     
  1775.64        500.000        3634.13     
  1772.44        500.000        3634.60     
  1769.23        500.000        3635.07     
  1766.03        500.000        3635.54     
  1762.82        500.000        3636.00     
  1759.62        500.000        3636.47     
  1756.41        500.000        3636.94     
  1753.21        500.000        3637.41     
  1750.00        500.000        3637.88     
  1746.79        500.000        3638.34     
  1743.59        500.000        3638.81     
  1740.38        500.000        3639.28     
  1737.18        500.000        3639.75     
  1733.97        500.000        3640.21     
  1730.77        500.000        3640.68     
  1727.56        500.000        3641.15     
  1724.36        500.000        3641.61     
  1721.15        500.000        3642.08     
  1717.95        500.000        3642.54     
  1714.74        500.000        3643.01     
  1711.54        500.000        3643.48     
  1708.33        500.000        3643.94     
  1705.13        500.000        3644.41     
  1701.92        500.000        3644.87     
  1698.72        500.000        3645.34     
  1695.51        500.000        3547.52     
  1692.31        500.000        3544.68     
  1689.10        500.000        3548.00     
  1685.90        500.000        3554.56     
  1682.69        500.000        3560.18     
  1679.49        500.000        3565.51     
  1676.28        500.000        3568.02     
  1673.08        500.000        3570.39     
  1669.87        500.000        3572.63     
  1666.67        500.000        3574.76     
  1663.46        500.000        3563.74     
  1660.26        500.000        3554.44     
  1657.05        500.000        3546.51     
  1653.85        500.000        3539.67     
  1650.64        500.000        3533.72     
  1647.44        500.000        3528.52     
  1644.23        500.000        3523.93     
  1641.03        500.000        3519.87     
  1637.82        500.000        3495.04     
  1634.62        500.000        3477.44     
  1631.41        500.000        3464.35     
  1628.21        500.000        3454.27     
  1625.00        500.000        3446.30     
  1621.79        500.000        3439.86     
  1618.59        500.000        3434.57     
  1615.38        500.000        3430.17     
  1612.18        500.000        3426.29     
  1608.97        500.000        3423.14     
  1605.77        500.000        3420.57     
  1602.56        500.000        3418.43     
  1599.36        500.000        3416.65     
  1596.15        500.000        3415.15     
  1592.95        500.000        3413.89     
  1589.74        500.000        3412.82     
  1586.54        500.000        3412.77     
  1583.33        500.000        3412.77     
  1580.13        500.000        3412.81     
  1576.92        500.000        3412.90     
  1573.72        500.000        3409.05     
  1570.51        500.000        3395.83     
  1567.31        500.000        3385.75     
  1564.10        500.000        3377.25     
  1560.90        500.000        3371.37     
  1557.69        500.000        3366.23     
  1554.49        500.000        3361.70     
  1551.28        500.000        3357.69     
  1548.08        500.000        3354.12     
  1544.87        500.000        3350.92     
  1541.67        500.000        3348.06     
  1538.46        500.000        3345.48     
  1535.26        500.000        3343.98     
  1532.05        500.000        3342.61     
  1528.85        500.000        3341.36     
  1525.64        500.000        3340.22     
  1522.44        500.000        3339.17     
  1519.23        500.000        3338.22     
  1516.03        500.000        3337.35     
  1512.82        500.000        3336.55     
  1509.62        500.000        3336.08     
  1506.41        500.000        3335.67     
  1503.21        500.000        3335.29     
  1500.00        500.000        3334.96     
  1496.79        500.000        3334.71     
  1493.59        500.000        3334.50     
  1490.38        500.000        3334.36     
  1487.18        500.000        3334.52     
  1483.97        500.000        3334.85     
  1480.77        500.000        3335.19     
  1477.56        500.000        3335.54     
  1474.36        500.000        3335.89     
  1471.15        500.000        3336.28     
  1467.95        500.000        3336.59     
  1464.74        500.000        3336.98     
  1461.54        500.000        3337.37     
  1458.33        500.000        3337.57     
  1455.13        500.000        3337.79     
  1451.92        500.000        3338.24     
  1448.72        500.000        3338.60     
  1445.51        500.000        3339.05     
  1442.31        500.000        3339.49     
  1439.10        500.000        3339.94     
  1435.90        500.000        3340.93     
  1432.69        500.000        3341.62     
  1429.49        500.000        3341.80     
  1426.28        500.000        3342.24     
  1423.08        500.000        3331.35     
  1419.87        500.000        3327.59     
  1416.67        500.000        3324.46     
  1413.46        500.000        3324.89     
  1410.26        500.000        3319.50     
  1407.05        500.000        3319.93     
  1403.85        500.000        3320.36     
  1400.64        500.000        3320.79     
  1397.44        500.000        3321.22     
  1394.23        500.000        3321.65     
  1391.03        500.000        3322.08     
  1387.82        500.000        3322.50     
  1384.62        500.000        3307.59     
  1381.41        500.000        3308.01     
  1378.21        500.000        3308.43     
  1375.00        500.000        3308.84     
  1371.79        500.000        3309.26     
  1368.59        500.000        3309.68     
  1365.38        500.000        3310.10     
  1362.18        500.000        3310.52     
  1358.97        500.000        3300.10     
  1355.77        500.000        3300.51     
  1352.56        500.000        3300.92     
  1349.36        500.000        3301.34     
  1346.15        500.000        3301.75     
  1342.95        500.000        3302.16     
  1339.74        500.000        3302.57     
  1336.54        500.000        3302.98     
  1333.33        500.000        3294.18     
  1330.13        500.000        3294.58     
  1326.92        500.000        3294.99     
  1323.72        500.000        3295.39     
  1320.51        500.000        3291.60     
  1317.31        500.000        3291.33     
  1314.10        500.000        3291.61     
  1310.90        500.000        3292.01     
  1307.69        500.000        3292.18     
  1304.49        500.000        3292.58     
  1301.28        500.000        3292.98     
  1298.08        500.000        3293.38     
  1294.87        500.000        3293.78     
  1291.67        500.000        3294.18     
  1288.46        500.000        3294.58     
  1285.26        500.000        3294.98     
  1282.05        500.000        3294.49     
  1278.85        500.000        3294.89     
  1275.64        500.000        3295.29     
  1272.44        500.000        3295.69     
  1269.23        500.000        3296.08     
  1266.03        500.000        3296.48     
  1262.82        500.000        3296.88     
  1259.62        500.000        3297.27     
  1256.41        500.000        3296.84     
  1253.21        500.000        3297.24     
  1250.00        500.000        3297.63     
  1246.79        500.000        3298.03     
  1243.59        500.000        3298.42     
  1240.38        500.000        3298.82     
  1237.18        500.000        3299.21     
  1233.97        500.000        3299.60     
  1230.77        500.000        3299.24     
  1227.56        500.000        3299.64     
  1224.36        500.000        3300.03     
  1221.15        500.000        3300.42     
  1217.95        500.000        3300.81     
  1214.74        500.000        3301.20     
  1211.54        500.000        3301.60     
  1208.33        500.000        3301.99     
  1205.13        500.000        3301.68     
  1201.92        500.000        3302.07     
  1198.72        500.000        3302.46     
  1195.51        500.000        3302.85     
  1192.31        500.000        3303.24     
  1189.10        500.000        3303.62     
  1185.90        500.000        3304.01     
  1182.69        500.000        3304.40     
  1179.49        500.000        3304.14     
  1176.28        500.000        3304.52     
  1173.08        500.000        3304.91     
  1169.87        500.000        3305.30     
  1166.67        500.000        3305.68     
  1163.46        500.000        3306.07     
  1160.26        500.000        3306.46     
  1157.05        500.000        3306.84     
  1153.85        500.000        3306.64     
  1150.64        500.000        3307.03     
  1147.44        500.000        3307.41     
  1144.23        500.000        3307.80     
  1141.03        500.000        3308.18     
  1137.82        500.000        3308.57     
  1134.62        500.000        3308.95     
  1131.41        500.000        3309.33     
  1128.21        500.000        3309.12     
  1125.00        500.000        3309.50     
  1121.79        500.000        3309.89     
  1118.59        500.000        3310.27     
  1115.38        500.000        3310.65     
  1112.18        500.000        3311.03     
  1108.97        500.000        3311.41     
  1105.77        500.000        3311.79     
  1102.56        500.000        3311.67     
  1099.36        500.000        3312.05     
  1096.15        500.000        3312.43     
  1092.95        500.000        3312.81     
  1089.74        500.000        3313.19     
  1086.54        500.000        3313.57     
  1083.33        500.000        3313.95     
  1080.13        500.000        3314.33     
  1076.92        500.000        3314.24     
  1073.72        500.000        3314.62     
  1070.51        500.000        3315.00     
  1067.31        500.000        3315.37     
  1064.10        500.000        3315.75     
  1060.90        500.000        3316.13     
  1057.69        500.000        3316.50     
  1054.49        500.000        3316.88     
  1051.28        500.000        3316.81     
  1048.08        500.000        3317.18     
  1044.87        500.000        3317.56     
  1041.67        500.000        3317.93     
  1038.46        500.000        3318.31     
  1035.26        500.000        3318.68     
  1032.05        500.000        3319.05     
  1028.85        500.000        3319.43     
  1025.64        500.000        3319.37     
  1022.44        500.000        3319.75     
  1019.23        500.000        3320.12     
  1016.03        500.000        3320.49     
  1012.82        500.000        3320.86     
  1009.62        500.000        3321.23     
  1006.41        500.000        3321.61     
  1003.21        500.000        3321.98     
  1000.00        500.000        3321.95     
