|6.6.6
Archiving\03_Data\frac/QFM_m3.75/NWA1068/NWA1068_6.tab                    
           1
T(K)    
  0.000000000000000E+000
  0.000000000000000E+000
           0
           3
T(K)           P(bar)         rho,kg/m3     
  2000.00        2500.00        3681.23     
  1997.49        2500.00        3681.62     
  1994.99        2500.00        3682.00     
  1992.48        2500.00        3682.39     
  1989.97        2500.00        3682.78     
  1987.47        2500.00        3683.16     
  1984.96        2500.00        3683.55     
  1982.46        2500.00        3683.93     
  1979.95        2500.00        3684.32     
  1977.44        2500.00        3684.70     
  1974.94        2500.00        3685.09     
  1972.43        2500.00        3685.47     
  1969.92        2500.00        3685.86     
  1967.42        2500.00        3686.24     
  1964.91        2500.00        3686.63     
  1962.41        2500.00        3687.01     
  1959.90        2500.00        3687.39     
  1957.39        2500.00        3687.78     
  1954.89        2500.00        3688.16     
  1952.38        2500.00        3688.55     
  1949.87        2500.00        3688.93     
  1947.37        2500.00        3689.31     
  1944.86        2500.00        3689.70     
  1942.36        2500.00        3690.08     
  1939.85        2500.00        3690.46     
  1937.34        2500.00        3690.85     
  1934.84        2500.00        3691.23     
  1932.33        2500.00        3691.61     
  1929.82        2500.00        3691.99     
  1927.32        2500.00        3692.38     
  1924.81        2500.00        3692.76     
  1922.31        2500.00        3693.14     
  1919.80        2500.00        3693.52     
  1917.29        2500.00        3693.90     
  1914.79        2500.00        3694.29     
  1912.28        2500.00        3694.67     
  1909.77        2500.00        3695.05     
  1907.27        2500.00        3695.43     
  1904.76        2500.00        3695.81     
  1902.26        2500.00        3696.19     
  1899.75        2500.00        3696.57     
  1897.24        2500.00        3696.95     
  1894.74        2500.00        3697.34     
  1892.23        2500.00        3697.72     
  1889.72        2500.00        3698.10     
  1887.22        2500.00        3698.48     
  1884.71        2500.00        3698.86     
  1882.21        2500.00        3699.24     
  1879.70        2500.00        3699.62     
  1877.19        2500.00        3700.00     
  1874.69        2500.00        3700.38     
  1872.18        2500.00        3700.76     
  1869.67        2500.00        3701.13     
  1867.17        2500.00        3701.51     
  1864.66        2500.00        3701.89     
  1862.16        2500.00        3702.27     
  1859.65        2500.00        3702.65     
  1857.14        2500.00        3703.03     
  1854.64        2500.00        3703.41     
  1852.13        2500.00        3703.79     
  1849.62        2500.00        3704.16     
  1847.12        2500.00        3704.54     
  1844.61        2500.00        3704.92     
  1842.11        2500.00        3705.30     
  1839.60        2500.00        3705.68     
  1837.09        2500.00        3706.05     
  1834.59        2500.00        3706.43     
  1832.08        2500.00        3706.81     
  1829.57        2500.00        3707.19     
  1827.07        2500.00        3707.56     
  1824.56        2500.00        3707.94     
  1822.06        2500.00        3708.32     
  1819.55        2500.00        3708.69     
  1817.04        2500.00        3709.07     
  1814.54        2500.00        3709.45     
  1812.03        2500.00        3709.82     
  1809.52        2500.00        3710.20     
  1807.02        2500.00        3710.58     
  1804.51        2500.00        3710.95     
  1802.01        2500.00        3711.33     
  1799.50        2500.00        3711.70     
  1796.99        2500.00        3712.08     
  1794.49        2500.00        3712.45     
  1791.98        2500.00        3712.83     
  1789.47        2500.00        3713.20     
  1786.97        2500.00        3713.58     
  1784.46        2500.00        3713.95     
  1781.95        2500.00        3714.33     
  1779.45        2500.00        3714.70     
  1776.94        2500.00        3715.08     
  1774.44        2500.00        3715.45     
  1771.93        2500.00        3715.83     
  1769.42        2500.00        3716.20     
  1766.92        2500.00        3716.57     
  1764.41        2500.00        3716.95     
  1761.90        2500.00        3717.32     
  1759.40        2500.00        3717.70     
  1756.89        2500.00        3718.07     
  1754.39        2500.00        3718.44     
  1751.88        2500.00        3718.82     
  1749.37        2500.00        3719.19     
  1746.87        2500.00        3719.56     
  1744.36        2500.00        3719.93     
  1741.85        2500.00        3720.31     
  1739.35        2500.00        3720.68     
  1736.84        2500.00        3721.05     
  1734.34        2500.00        3721.42     
  1731.83        2500.00        3721.80     
  1729.32        2500.00        3722.17     
  1726.82        2500.00        3722.54     
  1724.31        2500.00        3722.91     
  1721.80        2500.00        3723.28     
  1719.30        2500.00        3723.66     
  1716.79        2500.00        3724.03     
  1714.29        2500.00        3724.40     
  1711.78        2500.00        3724.77     
  1709.27        2500.00        3725.14     
  1706.77        2500.00        3725.51     
  1704.26        2500.00        3725.88     
  1701.75        2500.00        3726.25     
  1699.25        2500.00        3726.62     
  1696.74        2500.00        3727.63     
  1694.24        2500.00        3727.37     
  1691.73        2500.00        3727.74     
  1689.22        2500.00        3735.34     
  1686.72        2500.00        3737.88     
  1684.21        2500.00        3738.14     
  1681.70        2500.00        3738.48     
  1679.20        2500.00        3738.70     
  1676.69        2500.00        3739.02     
  1674.19        2500.00        3739.31     
  1671.68        2500.00        3739.62     
  1669.17        2500.00        3739.89     
  1666.67        2500.00        3740.20     
  1664.16        2500.00        3591.32     
  1661.65        2500.00        4497.66     
  1659.15        2500.00        3411.44     
  1656.64        2500.00        3408.94     
  1654.14        2500.00        3405.64     
  1651.63        2500.00        3428.64     
  1649.12        2500.00        3415.72     
  1646.62        2500.00        3417.98     
  1644.11        2500.00        3420.13     
  1641.60        2500.00        3422.22     
  1639.10        2500.00        3425.35     
  1636.59        2500.00        3427.05     
  1634.09        2500.00        3429.37     
  1631.58        2500.00        3431.49     
  1629.07        2500.00        3433.62     
  1626.57        2500.00        3435.61     
  1624.06        2500.00        3437.27     
  1621.55        2500.00        3439.67     
  1619.05        2500.00        3441.68     
  1616.54        2500.00        3444.82     
  1614.04        2500.00        3446.87     
  1611.53        2500.00        3448.71     
  1609.02        2500.00        3451.07     
  1606.52        2500.00        3452.77     
  1604.01        2500.00        3470.30     
  1601.50        2500.00        3457.89     
  1599.00        2500.00        3459.73     
  1596.49        2500.00        3462.46     
  1593.98        2500.00        3464.86     
  1591.48        2500.00        3467.49     
  1588.97        2500.00        3469.87     
  1586.47        2500.00        3470.57     
  1583.96        2500.00        3472.49     
  1581.45        2500.00        3474.43     
  1578.95        2500.00        3478.50     
  1576.44        2500.00        3479.61     
  1573.93        2500.00        3482.79     
  1571.43        2500.00        3483.65     
  1568.92        2500.00        3486.05     
  1566.42        2500.00        2919.64     
  1563.91        2500.00        3490.62     
  1561.40        2500.00        3492.26     
  1558.90        2500.00        3494.35     
  1556.39        2500.00        3497.20     
  1553.88        2500.00        3499.79     
  1551.38        2500.00        3502.72     
  1548.87        2500.00        3501.87     
  1546.37        2500.00        3504.14     
  1543.86        2500.00        3508.00     
  1541.35        2500.00        3510.66     
  1538.85        2500.00        3512.38     
  1536.34        2500.00        3514.84     
  1533.83        2500.00        3515.89     
  1531.33        2500.00        3518.68     
  1528.82        2500.00        3520.18     
  1526.32        2500.00        3522.84     
  1523.81        2500.00        3525.20     
  1521.30        2500.00        3527.25     
  1518.80        2500.00        3529.60     
  1516.29        2500.00        3531.21     
  1513.78        2500.00        3403.94     
  1511.28        2500.00        3317.41     
  1508.77        2500.00        3317.42     
  1506.27        2500.00        3319.69     
  1503.76        2500.00        3319.84     
  1501.25        2500.00        3321.09     
  1498.75        2500.00        3321.72     
  1496.24        2500.00        3322.95     
  1493.73        2500.00        3323.50     
  1491.23        2500.00        3323.20     
  1488.72        2500.00        3300.45     
  1486.22        2500.00        3302.83     
  1483.71        2500.00        3304.95     
  1481.20        2500.00        3307.18     
  1478.70        2500.00        3309.26     
  1476.19        2500.00        3311.40     
  1473.68        2500.00        3313.92     
  1471.18        2500.00        3315.91     
  1468.67        2500.00        3318.13     
  1466.17        2500.00        3320.41     
  1463.66        2500.00        3333.45     
  1461.15        2500.00        3340.04     
  1458.65        2500.00        3341.99     
  1456.14        2500.00        3344.10     
  1453.63        2500.00        3346.14     
  1451.13        2500.00        3348.19     
  1448.62        2500.00        3350.24     
  1446.12        2500.00        3352.33     
  1443.61        2500.00        3354.55     
  1441.10        2500.00        3356.39     
  1438.60        2500.00        3358.72     
  1436.09        2500.00        3360.92     
  1433.58        2500.00        3362.90     
  1431.08        2500.00        3364.19     
  1428.57        2500.00        3371.28     
  1426.07        2500.00        3365.56     
  1423.56        2500.00        3400.66     
  1421.05        2500.00        3361.32     
  1418.55        2500.00        3365.87     
  1416.04        2500.00        3371.32     
  1413.53        2500.00        3380.56     
  1411.03        2500.00        3425.04     
  1408.52        2500.00        3375.07     
  1406.02        2500.00        3234.28     
  1403.51        2500.00        3202.43     
  1401.00        2500.00        3206.32     
  1398.50        2500.00        3210.36     
  1395.99        2500.00        3214.06     
  1393.48        2500.00        3217.85     
  1390.98        2500.00        3221.76     
  1388.47        2500.00        3224.16     
  1385.96        2500.00        3230.83     
  1383.46        2500.00        3232.50     
  1380.95        2500.00        3236.07     
  1378.45        2500.00        3239.01     
  1375.94        2500.00        3243.11     
  1373.43        2500.00        3246.45     
  1370.93        2500.00        3249.60     
  1368.42        2500.00        3245.31     
  1365.91        2500.00        3257.04     
  1363.41        2500.00        3258.35     
  1360.90        2500.00        3262.79     
  1358.40        2500.00        3265.33     
  1355.89        2500.00        3268.60     
  1353.38        2500.00        3271.61     
  1350.88        2500.00        3273.76     
  1348.37        2500.00        3275.64     
  1345.86        2500.00        3278.87     
  1343.36        2500.00        3281.53     
  1340.85        2500.00        3283.69     
  1338.35        2500.00        3286.09     
  1335.84        2500.00        3287.85     
  1333.33        2500.00        3329.04     
  1330.83        2500.00        3331.96     
  1328.32        2500.00        3332.47     
  1325.81        2500.00        3334.51     
  1323.31        2500.00        3335.91     
  1320.80        2500.00        3337.01     
  1318.30        2500.00        3337.75     
  1315.79        2500.00        3338.39     
  1313.28        2500.00        3338.61     
  1310.78        2500.00        3339.54     
  1308.27        2500.00        3339.63     
  1305.76        2500.00        3339.76     
  1303.26        2500.00        3339.84     
  1300.75        2500.00        3339.82     
  1298.25        2500.00        3339.09     
  1295.74        2500.00        2856.94     
  1293.23        2500.00        2851.69     
  1290.73        2500.00        2853.97     
  1288.22        2500.00        2854.94     
  1285.71        2500.00        2854.50     
  1283.21        2500.00        2852.31     
  1280.70        2500.00        2846.24     
  1278.20        2500.00        2843.67     
  1275.69        2500.00        2839.46     
  1273.18        2500.00        2839.54     
  1270.68        2500.00        2841.62     
  1268.17        2500.00        2844.39     
  1265.66        2500.00        2796.32     
  1263.16        2500.00        3032.33     
  1260.65        2500.00        2818.98     
  1258.15        2500.00        2853.73     
  1255.64        2500.00        2842.49     
  1253.13        2500.00        2925.68     
  1250.63        2500.00        2787.52     
  1248.12        2500.00        2940.40     
  1245.61        2500.00        2810.86     
  1243.11        2500.00        2973.97     
  1240.60        2500.00        2919.06     
  1238.10        2500.00        2656.19     
  1235.59        2500.00        3153.60     
  1233.08        2500.00        3021.08     
  1230.58        2500.00        2653.60     
  1228.07        2500.00        2684.58     
  1225.56        2500.00        2684.71     
  1223.06        2500.00        2684.84     
  1220.55        2500.00        2684.96     
  1218.05        2500.00        2685.09     
  1215.54        2500.00        2685.22     
  1213.03        2500.00        2685.34     
  1210.53        2500.00        2685.47     
  1208.02        2500.00        2685.60     
  1205.51        2500.00        2685.73     
  1203.01        2500.00        2685.85     
  1200.50        2500.00        2685.98     
  1197.99        2500.00        2686.11     
  1195.49        2500.00        2686.23     
  1192.98        2500.00        2686.36     
  1190.48        2500.00        2686.49     
  1187.97        2500.00        2686.62     
  1185.46        2500.00        2686.74     
  1182.96        2500.00        2686.87     
  1180.45        2500.00        2687.00     
  1177.94        2500.00        2687.13     
  1175.44        2500.00        2687.25     
  1172.93        2500.00        2687.38     
  1170.43        2500.00        2687.51     
  1167.92        2500.00        2687.63     
  1165.41        2500.00        2687.76     
  1162.91        2500.00        2687.89     
  1160.40        2500.00        2688.02     
  1157.89        2500.00        2688.14     
  1155.39        2500.00        2688.28     
  1152.88        2500.00        2688.40     
  1150.38        2500.00        2688.53     
  1147.87        2500.00        2688.66     
  1145.36        2500.00        2688.78     
  1142.86        2500.00        2688.91     
  1140.35        2500.00        2689.03     
  1137.84        2500.00        2689.16     
  1135.34        2500.00        2689.29     
  1132.83        2500.00        2689.42     
  1130.33        2500.00        2689.54     
  1127.82        2500.00        2689.67     
  1125.31        2500.00        2689.79     
  1122.81        2500.00        2689.92     
  1120.30        2500.00        2681.24     
  1117.79        2500.00        2690.17     
  1115.29        2500.00        2690.30     
  1112.78        2500.00        2690.43     
  1110.28        2500.00        2690.55     
  1107.77        2500.00        2690.68     
  1105.26        2500.00        2690.80     
  1102.76        2500.00        2682.04     
  1100.25        2500.00        2691.05     
  1097.74        2500.00        2691.18     
  1095.24        2500.00        2691.31     
  1092.73        2500.00        2691.58     
  1090.23        2500.00        2691.70     
  1087.72        2500.00        2691.83     
  1085.21        2500.00        2692.36     
  1082.71        2500.00        2691.94     
  1080.20        2500.00        2692.63     
  1077.69        2500.00        2692.72     
  1075.19        2500.00        2692.45     
  1072.68        2500.00        2692.72     
  1070.18        2500.00        2692.72     
  1067.67        2500.00        2692.98     
  1065.16        2500.00        2693.20     
  1062.66        2500.00        2693.11     
  1060.15        2500.00        2693.21     
  1057.64        2500.00        2693.68     
  1055.14        2500.00        2693.45     
  1052.63        2500.00        2693.57     
  1050.13        2500.00        2693.51     
  1047.62        2500.00        2693.82     
  1045.11        2500.00        2693.98     
  1042.61        2500.00        2694.08     
  1040.10        2500.00        2694.20     
  1037.59        2500.00        2694.07     
  1035.09        2500.00        2694.46     
  1032.58        2500.00        2694.59     
  1030.08        2500.00        2694.72     
  1027.57        2500.00        2694.59     
  1025.06        2500.00        2694.68     
  1022.56        2500.00        2695.09     
  1020.05        2500.00        2694.97     
  1017.54        2500.00        2695.33     
  1015.04        2500.00        2695.18     
  1012.53        2500.00        2695.56     
  1010.03        2500.00        2695.45     
  1007.52        2500.00        2695.53     
  1005.01        2500.00        2695.66     
  1002.51        2500.00        2695.75     
  1000.00        2500.00        2696.19     
