|6.6.6
Archiving\03_Data\DeqfracLP/QFM_m4.5/WD94/WD94_6.tab                      
           1
T(K)    
  0.000000000000000E+000
  0.000000000000000E+000
           0
           3
T(K)           P(bar)         rho,kg/m3     
  1602.56        500.000        3264.35     
  1601.05        500.000        3261.00     
  1599.54        500.000        3244.34     
  1598.03        500.000        3244.79     
  1596.52        500.000        3246.15     
  1595.01        500.000        3246.30     
  1593.50        500.000        3246.26     
  1591.99        500.000        3247.31     
  1590.48        500.000        3247.88     
  1588.97        500.000        3247.81     
  1587.46        500.000        3248.36     
  1585.95        500.000        3249.27     
  1584.44        500.000        3249.28     
  1582.93        500.000        3249.19     
  1581.42        500.000        3250.79     
  1579.91        500.000        3250.92     
  1578.40        500.000        3251.63     
  1576.89        500.000        3250.68     
  1575.38        500.000        3251.48     
  1573.87        500.000        3261.36     
  1572.36        500.000        3250.81     
  1570.85        500.000        3249.63     
  1569.34        500.000        3249.72     
  1567.83        500.000        3260.43     
  1566.32        500.000        3256.89     
  1564.81        500.000        3251.89     
  1563.30        500.000        3261.22     
  1561.79        500.000        3253.33     
  1560.28        500.000        3253.34     
  1558.76        500.000        3254.83     
  1557.25        500.000        3254.60     
  1555.74        500.000        3257.67     
  1554.23        500.000        3259.98     
  1552.72        500.000        3259.90     
  1551.21        500.000        3260.12     
  1549.70        500.000        3260.60     
  1548.19        500.000        3261.23     
  1546.68        500.000        3260.74     
  1545.17        500.000        3261.66     
  1543.66        500.000        3262.25     
  1542.15        500.000        3262.51     
  1540.64        500.000        3264.32     
  1539.13        500.000        3263.64     
  1537.62        500.000        3263.58     
  1536.11        500.000        3264.81     
  1534.60        500.000        3265.30     
  1533.09        500.000        3264.96     
  1531.58        500.000        3266.06     
  1530.07        500.000        3264.43     
  1528.56        500.000        3266.56     
  1527.05        500.000        3269.85     
  1525.54        500.000        3276.02     
  1524.03        500.000        3267.30     
  1522.52        500.000        3270.03     
  1521.01        500.000        3279.22     
  1519.50        500.000        3269.46     
  1517.99        500.000        3270.03     
  1516.48        500.000        3270.76     
  1514.97        500.000        3271.60     
  1513.46        500.000        3271.50     
  1511.95        500.000        3272.57     
  1510.44        500.000        3273.09     
  1508.93        500.000        3273.62     
  1507.42        500.000        3274.14     
  1505.91        500.000        3274.82     
  1504.40        500.000        3275.16     
  1502.89        500.000        3276.39     
  1501.38        500.000        3276.64     
  1499.87        500.000        3277.30     
  1498.36        500.000        3266.70     
  1496.85        500.000        3269.87     
  1495.34        500.000        3268.53     
  1493.83        500.000        3268.89     
  1492.32        500.000        3270.18     
  1490.81        500.000        3271.42     
  1489.30        500.000        3272.32     
  1487.79        500.000        3277.08     
  1486.28        500.000        3272.81     
  1484.77        500.000        3274.49     
  1483.26        500.000        3275.35     
  1481.75        500.000        3276.31     
  1480.24        500.000        3277.12     
  1478.73        500.000        3278.19     
  1477.22        500.000        3278.82     
  1475.71        500.000        3279.77     
  1474.20        500.000        3280.87     
  1472.68        500.000        3282.44     
  1471.17        500.000        3282.44     
  1469.66        500.000        3283.30     
  1468.15        500.000        3283.66     
  1466.64        500.000        3284.90     
  1465.13        500.000        3285.58     
  1463.62        500.000        3277.41     
  1462.11        500.000        3266.81     
  1460.60        500.000        3268.01     
  1459.09        500.000        3268.77     
  1457.58        500.000        2811.50     
  1456.07        500.000        3271.76     
  1454.56        500.000        3272.82     
  1453.05        500.000        3274.35     
  1451.54        500.000        3275.54     
  1450.03        500.000        3276.81     
  1448.52        500.000        3278.23     
  1447.01        500.000        3279.64     
  1445.50        500.000        3280.72     
  1443.99        500.000        3281.99     
  1442.48        500.000        3282.66     
  1440.97        500.000        3284.69     
  1439.46        500.000        3285.93     
  1437.95        500.000        3155.02     
  1436.44        500.000        3104.46     
  1434.93        500.000        3106.04     
  1433.42        500.000        3107.88     
  1431.91        500.000        3109.68     
  1430.40        500.000        3111.69     
  1428.89        500.000        3113.36     
  1427.38        500.000        3115.11     
  1425.87        500.000        3116.87     
  1424.36        500.000        3118.69     
  1422.85        500.000        3120.35     
  1421.34        500.000        3122.29     
  1419.83        500.000        3124.00     
  1418.32        500.000        3125.52     
  1416.81        500.000        3127.72     
  1415.30        500.000        3129.36     
  1413.79        500.000        3130.92     
  1412.28        500.000        3132.96     
  1410.77        500.000        3134.65     
  1409.26        500.000        3136.46     
  1407.75        500.000        3138.29     
  1406.24        500.000        3140.07     
  1404.73        500.000        3141.81     
  1403.22        500.000        3143.60     
  1401.71        500.000        3145.72     
  1400.20        500.000        3147.09     
  1398.69        500.000        3148.97     
  1397.18        500.000        3150.78     
  1395.67        500.000        3152.47     
  1394.16        500.000        3154.22     
  1392.65        500.000        3156.10     
  1391.14        500.000        3158.05     
  1389.63        500.000        3159.82     
  1388.12        500.000        3161.48     
  1386.60        500.000        3163.44     
  1385.09        500.000        3165.20     
  1383.58        500.000        3166.82     
  1382.07        500.000        3168.67     
  1380.56        500.000        3170.45     
  1379.05        500.000        3172.43     
  1377.54        500.000        3174.44     
  1376.03        500.000        3175.98     
  1374.52        500.000        3178.33     
  1373.01        500.000        3179.79     
  1371.50        500.000        3181.70     
  1369.99        500.000        3183.47     
  1368.48        500.000        3185.24     
  1366.97        500.000        3187.14     
  1365.46        500.000        3198.50     
  1363.95        500.000        3221.79     
  1362.44        500.000        3224.80     
  1360.93        500.000        3226.31     
  1359.42        500.000        3228.92     
  1357.91        500.000        3229.99     
  1356.40        500.000        3232.71     
  1354.89        500.000        3234.53     
  1353.38        500.000        3236.66     
  1351.87        500.000        3238.69     
  1350.36        500.000        3240.65     
  1348.85        500.000        3242.55     
  1347.34        500.000        3233.14     
  1345.83        500.000        3248.59     
  1344.32        500.000        3248.57     
  1342.81        500.000        3250.71     
  1341.30        500.000        3252.83     
  1339.79        500.000        3254.70     
  1338.28        500.000        3256.55     
  1336.77        500.000        3258.52     
  1335.26        500.000        3260.83     
  1333.75        500.000        3262.67     
  1332.24        500.000        3263.54     
  1330.73        500.000        3264.24     
  1329.22        500.000        3271.07     
  1327.71        500.000        3270.21     
  1326.20        500.000        3272.23     
  1324.69        500.000        3273.37     
  1323.18        500.000        3275.95     
  1321.67        500.000        3277.58     
  1320.16        500.000        3279.52     
  1318.65        500.000        3280.48     
  1317.14        500.000        3282.17     
  1315.63        500.000        3285.17     
  1314.12        500.000        3283.89     
  1312.61        500.000        3289.81     
  1311.10        500.000        3289.94     
  1309.59        500.000        3290.91     
  1308.08        500.000        3292.34     
  1306.57        500.000        3294.17     
  1305.06        500.000        3295.52     
  1303.55        500.000        3297.14     
  1302.04        500.000        3299.19     
  1300.52        500.000        3299.49     
  1299.01        500.000        3301.42     
  1297.50        500.000        3302.78     
  1295.99        500.000        3304.62     
  1294.48        500.000        3305.33     
  1292.97        500.000        3306.05     
  1291.46        500.000        3308.30     
  1289.95        500.000        3309.26     
  1288.44        500.000        3310.51     
  1286.93        500.000        3311.15     
  1285.42        500.000        3312.67     
  1283.91        500.000        3313.92     
  1282.40        500.000        3313.62     
  1280.89        500.000        3314.57     
  1279.38        500.000        3316.74     
  1277.87        500.000        3317.06     
  1276.36        500.000        3318.33     
  1274.85        500.000        3319.55     
  1273.34        500.000        3319.85     
  1271.83        500.000        2935.65     
  1270.32        500.000        2817.69     
  1268.81        500.000        2819.16     
  1267.30        500.000        2821.76     
  1265.79        500.000        2823.41     
  1264.28        500.000        2825.50     
  1262.77        500.000        2828.60     
  1261.26        500.000        2750.08     
  1259.75        500.000        2924.77     
  1258.24        500.000        2828.46     
  1256.73        500.000        2832.52     
  1255.22        500.000        2835.55     
  1253.71        500.000        2837.95     
  1252.20        500.000        2848.64     
  1250.69        500.000        2849.78     
  1249.18        500.000        2850.33     
  1247.67        500.000        2851.12     
  1246.16        500.000        2851.61     
  1244.65        500.000        2852.00     
  1243.14        500.000        2853.01     
  1241.63        500.000        2852.72     
  1240.12        500.000        2854.35     
  1238.61        500.000        2854.31     
  1237.10        500.000        2854.95     
  1235.59        500.000        2854.58     
  1234.08        500.000        2855.75     
  1232.57        500.000        2855.40     
  1231.06        500.000        2855.83     
  1229.55        500.000        2856.65     
  1228.04        500.000        2855.70     
  1226.53        500.000        2856.78     
  1225.02        500.000        2856.52     
  1223.51        500.000        2857.03     
  1222.00        500.000        2857.05     
  1220.49        500.000        2856.51     
  1218.98        500.000        2749.73     
  1217.47        500.000        2681.83     
  1215.96        500.000        3013.27     
  1214.44        500.000        2992.78     
  1212.93        500.000        2746.62     
  1211.42        500.000        2675.62     
  1209.91        500.000        2674.69     
  1208.40        500.000        2640.88     
  1206.89        500.000        2687.01     
  1205.38        500.000        2707.26     
  1203.87        500.000        2662.17     
  1202.36        500.000        2677.56     
  1200.85        500.000        2645.70     
  1199.34        500.000        2683.60     
  1197.83        500.000        2667.87     
  1196.32        500.000        2664.98     
  1194.81        500.000        2662.33     
  1193.30        500.000        2655.33     
  1191.79        500.000        2633.19     
  1190.28        500.000        2630.80     
  1188.77        500.000        2630.75     
  1187.26        500.000        2630.93     
  1185.75        500.000        2631.00     
  1184.24        500.000        2627.43     
  1182.73        500.000        2631.13     
  1181.22        500.000        2627.56     
  1179.71        500.000        2627.63     
  1178.20        500.000        2627.70     
  1176.69        500.000        2627.76     
  1175.18        500.000        2627.83     
  1173.67        500.000        2627.89     
  1172.16        500.000        2627.96     
  1170.65        500.000        2628.03     
  1169.14        500.000        2631.72     
  1167.63        500.000        2628.16     
  1166.12        500.000        2628.22     
  1164.61        500.000        2628.29     
  1163.10        500.000        2628.36     
  1161.59        500.000        2628.42     
  1160.08        500.000        2628.49     
  1158.57        500.000        2628.55     
  1157.06        500.000        2628.62     
  1155.55        500.000        2628.68     
  1154.04        500.000        2628.75     
  1152.53        500.000        2628.82     
  1151.02        500.000        2628.88     
  1149.51        500.000        2628.95     
  1148.00        500.000        2629.01     
  1146.49        500.000        2629.08     
  1144.98        500.000        2629.14     
  1143.47        500.000        2629.21     
  1141.96        500.000        2629.28     
  1140.45        500.000        2629.34     
  1138.94        500.000        2629.41     
  1137.43        500.000        2629.47     
  1135.92        500.000        2629.54     
  1134.41        500.000        2629.60     
  1132.90        500.000        2629.67     
  1131.39        500.000        2629.73     
  1129.88        500.000        2629.80     
  1128.36        500.000        2629.86     
  1126.85        500.000        2629.93     
  1125.34        500.000        2629.99     
  1123.83        500.000        2630.06     
  1122.32        500.000        2630.13     
  1120.81        500.000        2630.19     
  1119.30        500.000        2630.26     
  1117.79        500.000        2630.32     
  1116.28        500.000        2630.39     
  1114.77        500.000        2630.45     
  1113.26        500.000        2630.52     
  1111.75        500.000        2630.58     
  1110.24        500.000        2630.65     
  1108.73        500.000        2630.71     
  1107.22        500.000        2630.78     
  1105.71        500.000        2630.84     
  1104.20        500.000        2630.91     
  1102.69        500.000        2630.97     
  1101.18        500.000        2631.04     
  1099.67        500.000        2631.10     
  1098.16        500.000        2631.17     
  1096.65        500.000        2631.23     
  1095.14        500.000        2631.30     
  1093.63        500.000        2631.36     
  1092.12        500.000        2631.43     
  1090.61        500.000        2631.49     
  1089.10        500.000        2631.56     
  1087.59        500.000        2631.62     
  1086.08        500.000        2631.69     
  1084.57        500.000        2631.75     
  1083.06        500.000        2631.82     
  1081.55        500.000        2631.88     
  1080.04        500.000        2631.95     
  1078.53        500.000        2632.01     
  1077.02        500.000        2632.07     
  1075.51        500.000        2632.14     
  1074.00        500.000        2635.89     
  1072.49        500.000        2632.27     
  1070.98        500.000        2632.33     
  1069.47        500.000        2632.40     
  1067.96        500.000        2632.46     
  1066.45        500.000        2632.53     
  1064.94        500.000        2632.59     
  1063.43        500.000        2632.66     
  1061.92        500.000        2632.72     
  1060.41        500.000        2632.79     
  1058.90        500.000        2632.85     
  1057.39        500.000        2632.91     
  1055.88        500.000        2632.98     
  1054.37        500.000        2633.04     
  1052.86        500.000        2633.11     
  1051.35        500.000        2633.17     
  1049.84        500.000        2633.24     
  1048.33        500.000        2633.30     
  1046.82        500.000        2633.36     
  1045.31        500.000        2633.43     
  1043.80        500.000        2633.49     
  1042.28        500.000        2633.56     
  1040.77        500.000        2633.62     
  1039.26        500.000        2633.69     
  1037.75        500.000        2633.75     
  1036.24        500.000        2635.56     
  1034.73        500.000        2635.56     
  1033.22        500.000        2635.57     
  1031.71        500.000        2635.58     
  1030.20        500.000        2635.60     
  1028.69        500.000        2635.03     
  1027.18        500.000        2635.63     
  1025.67        500.000        2635.65     
  1024.16        500.000        2635.15     
  1022.65        500.000        2635.70     
  1021.14        500.000        2635.73     
  1019.63        500.000        2635.76     
  1018.12        500.000        2635.79     
  1016.61        500.000        2635.43     
  1015.10        500.000        2635.85     
  1013.59        500.000        2635.45     
  1012.08        500.000        2635.49     
  1010.57        500.000        2635.61     
  1009.06        500.000        2634.97     
  1007.55        500.000        2635.03     
  1006.04        500.000        2635.09     
  1004.53        500.000        2635.16     
  1003.02        500.000        2635.22     
  1001.51        500.000        2635.29     
  1000.00        500.000        2635.35     
