|6.6.6
Archiving\03_Data\DeqLP/QFM_m2.75/WD94/WD94_6.tab                         
           1
T(K)    
  0.000000000000000E+000
  0.000000000000000E+000
           0
           3
T(K)           P(bar)         rho,kg/m3     
  2000.00        500.000        2940.49     
  1996.79        500.000        2941.26     
  1993.59        500.000        2942.04     
  1990.38        500.000        2942.81     
  1987.18        500.000        2943.59     
  1983.97        500.000        2944.37     
  1980.77        500.000        2945.14     
  1977.56        500.000        2945.92     
  1974.36        500.000        2946.70     
  1971.15        500.000        2947.48     
  1967.95        500.000        2948.25     
  1964.74        500.000        2949.03     
  1961.54        500.000        2949.81     
  1958.33        500.000        2950.59     
  1955.13        500.000        2951.36     
  1951.92        500.000        2952.14     
  1948.72        500.000        2952.92     
  1945.51        500.000        2953.70     
  1942.31        500.000        2954.48     
  1939.10        500.000        2955.25     
  1935.90        500.000        2956.03     
  1932.69        500.000        2956.81     
  1929.49        500.000        2957.59     
  1926.28        500.000        2958.37     
  1923.08        500.000        2959.15     
  1919.87        500.000        2959.93     
  1916.67        500.000        2960.71     
  1913.46        500.000        2961.48     
  1910.26        500.000        3164.66     
  1907.05        500.000        3170.35     
  1903.85        500.000        3172.27     
  1900.64        500.000        3173.41     
  1897.44        500.000        3174.28     
  1894.23        500.000        3178.54     
  1891.03        500.000        3181.73     
  1887.82        500.000        3184.26     
  1884.62        500.000        3186.34     
  1881.41        500.000        3188.10     
  1878.21        500.000        3189.64     
  1875.00        500.000        3190.99     
  1871.79        500.000        3192.22     
  1868.59        500.000        3195.69     
  1865.38        500.000        3200.93     
  1862.18        500.000        3202.71     
  1858.97        500.000        3204.36     
  1855.77        500.000        3207.41     
  1852.56        500.000        3210.22     
  1849.36        500.000        3212.81     
  1846.15        500.000        3215.21     
  1842.95        500.000        3218.78     
  1839.74        500.000        3222.09     
  1836.54        500.000        3225.20     
  1833.33        500.000        3228.10     
  1830.13        500.000        3230.84     
  1826.92        500.000        3233.42     
  1823.72        500.000        3235.86     
  1820.51        500.000        3238.17     
  1817.31        500.000        3240.96     
  1814.10        500.000        3243.62     
  1810.90        500.000        3246.16     
  1807.69        500.000        3248.58     
  1804.49        500.000        3250.90     
  1801.28        500.000        3253.13     
  1798.08        500.000        3255.27     
  1794.87        500.000        3257.33     
  1791.67        500.000        3259.84     
  1788.46        500.000        3262.27     
  1785.26        500.000        3264.61     
  1782.05        500.000        3266.86     
  1778.85        500.000        3269.05     
  1775.64        500.000        3271.16     
  1772.44        500.000        3273.20     
  1769.23        500.000        3275.19     
  1766.03        500.000        3277.36     
  1762.82        500.000        3279.47     
  1759.62        500.000        3281.52     
  1756.41        500.000        3283.51     
  1753.21        500.000        3285.46     
  1750.00        500.000        3287.35     
  1746.79        500.000        3289.19     
  1743.59        500.000        3290.99     
  1740.38        500.000        3293.00     
  1737.18        500.000        3294.96     
  1733.97        500.000        3296.88     
  1730.77        500.000        3298.75     
  1727.56        500.000        3300.58     
  1724.36        500.000        3302.37     
  1721.15        500.000        3304.12     
  1717.95        500.000        3305.84     
  1714.74        500.000        3307.56     
  1711.54        500.000        3309.24     
  1708.33        500.000        3310.89     
  1705.13        500.000        3312.52     
  1701.92        500.000        3314.11     
  1698.72        500.000        3315.68     
  1695.51        500.000        3317.22     
  1692.31        500.000        3318.73     
  1689.10        500.000        3319.92     
  1685.90        500.000        3321.10     
  1682.69        500.000        3322.26     
  1679.49        500.000        3323.41     
  1676.28        500.000        3324.54     
  1673.08        500.000        3325.66     
  1669.87        500.000        3326.77     
  1666.67        500.000        3327.86     
  1663.46        500.000        3329.33     
  1660.26        500.000        3330.78     
  1657.05        500.000        3332.21     
  1653.85        500.000        3333.63     
  1650.64        500.000        3335.03     
  1647.44        500.000        3336.41     
  1644.23        500.000        3337.77     
  1641.03        500.000        3339.12     
  1637.82        500.000        3340.08     
  1634.62        500.000        3341.04     
  1631.41        500.000        3341.98     
  1628.21        500.000        3342.92     
  1625.00        500.000        3343.94     
  1621.79        500.000        3344.94     
  1618.59        500.000        3343.52     
  1615.38        500.000        3344.97     
  1612.18        500.000        3344.15     
  1608.97        500.000        3343.38     
  1605.77        500.000        3342.64     
  1602.56        500.000        3341.93     
  1599.36        500.000        3341.26     
  1596.15        500.000        3340.62     
  1592.95        500.000        3340.01     
  1589.74        500.000        3339.42     
  1586.54        500.000        3339.44     
  1583.33        500.000        3339.46     
  1580.13        500.000        3339.49     
  1576.92        500.000        3339.53     
  1573.72        500.000        3339.58     
  1570.51        500.000        3339.63     
  1567.31        500.000        3339.70     
  1564.10        500.000        3339.77     
  1560.90        500.000        3339.73     
  1557.69        500.000        3339.71     
  1554.49        500.000        3339.69     
  1551.28        500.000        3339.68     
  1548.08        500.000        3339.68     
  1544.87        500.000        3339.68     
  1541.67        500.000        3339.69     
  1538.46        500.000        3339.71     
  1535.26        500.000        3339.91     
  1532.05        500.000        3340.11     
  1528.85        500.000        3340.32     
  1525.64        500.000        3340.53     
  1522.44        500.000        3340.75     
  1519.23        500.000        3340.96     
  1516.03        500.000        3341.18     
  1512.82        500.000        3341.41     
  1509.62        500.000        3341.59     
  1506.41        500.000        3341.77     
  1503.21        500.000        3341.95     
  1500.00        500.000        3342.14     
  1496.79        500.000        3342.34     
  1493.59        500.000        3342.53     
  1490.38        500.000        3342.73     
  1487.18        500.000        3342.93     
  1483.97        500.000        3343.06     
  1480.77        500.000        3343.20     
  1477.56        500.000        3343.34     
  1474.36        500.000        3343.48     
  1471.15        500.000        3343.77     
  1467.95        500.000        3343.97     
  1464.74        500.000        3344.44     
  1461.54        500.000        3344.92     
  1458.33        500.000        3345.23     
  1455.13        500.000        3345.55     
  1451.92        500.000        3345.87     
  1448.72        500.000        3346.18     
  1445.51        500.000        3346.57     
  1442.31        500.000        3346.95     
  1439.10        500.000        3347.34     
  1435.90        500.000        3347.29     
  1432.69        500.000        3347.73     
  1429.49        500.000        3348.18     
  1426.28        500.000        3348.63     
  1423.08        500.000        3349.07     
  1419.87        500.000        3349.52     
  1416.67        500.000        3349.97     
  1413.46        500.000        3350.41     
  1410.26        500.000        3340.83     
  1407.05        500.000        3341.27     
  1403.85        500.000        3341.71     
  1400.64        500.000        3342.15     
  1397.44        500.000        3342.59     
  1394.23        500.000        3343.03     
  1391.03        500.000        3343.47     
  1387.82        500.000        3343.91     
  1384.62        500.000        3339.19     
  1381.41        500.000        3339.62     
  1378.21        500.000        3340.06     
  1375.00        500.000        3340.49     
  1371.79        500.000        3340.93     
  1368.59        500.000        3341.36     
  1365.38        500.000        3341.80     
  1362.18        500.000        3342.23     
  1358.97        500.000        3338.87     
  1355.77        500.000        3339.31     
  1352.56        500.000        3339.74     
  1349.36        500.000        3340.17     
  1346.15        500.000        3340.60     
  1342.95        500.000        3341.03     
  1339.74        500.000        3341.46     
  1336.54        500.000        3341.89     
  1333.33        500.000        3339.23     
  1330.13        500.000        3339.66     
  1326.92        500.000        3340.09     
  1323.72        500.000        3340.52     
  1320.51        500.000        3340.94     
  1317.31        500.000        3341.37     
  1314.10        500.000        3341.80     
  1310.90        500.000        3342.22     
  1307.69        500.000        3339.98     
  1304.49        500.000        3340.41     
  1301.28        500.000        3340.22     
  1298.08        500.000        3335.02     
  1294.87        500.000        3335.37     
  1291.67        500.000        3335.79     
  1288.46        500.000        3336.22     
  1285.26        500.000        3336.64     
  1282.05        500.000        3336.86     
  1278.85        500.000        3337.28     
  1275.64        500.000        3337.70     
  1272.44        500.000        3338.12     
  1269.23        500.000        3338.54     
  1266.03        500.000        3338.96     
  1262.82        500.000        3339.38     
  1259.62        500.000        3339.80     
  1256.41        500.000        3339.79     
  1253.21        500.000        3340.21     
  1250.00        500.000        3340.62     
  1246.79        500.000        3341.04     
  1243.59        500.000        3341.46     
  1240.38        500.000        3341.88     
  1237.18        500.000        3342.29     
  1233.97        500.000        3342.71     
  1230.77        500.000        3342.74     
  1227.56        500.000        3343.15     
  1224.36        500.000        3343.57     
  1221.15        500.000        3343.99     
  1217.95        500.000        3344.40     
  1214.74        500.000        3344.82     
  1211.54        500.000        3345.23     
  1208.33        500.000        3345.65     
  1205.13        500.000        3345.71     
  1201.92        500.000        3346.12     
  1198.72        500.000        3346.53     
  1195.51        500.000        3346.95     
  1192.31        500.000        3347.36     
  1189.10        500.000        3347.77     
  1185.90        500.000        3348.19     
  1182.69        500.000        3348.60     
  1179.49        500.000        3348.68     
  1176.28        500.000        3349.10     
  1173.08        500.000        3349.51     
  1169.87        500.000        3349.92     
  1166.67        500.000        3350.33     
  1163.46        500.000        3350.74     
  1160.26        500.000        3351.15     
  1157.05        500.000        3351.56     
  1153.85        500.000        3351.68     
  1150.64        500.000        3352.09     
  1147.44        500.000        3352.49     
  1144.23        500.000        3352.90     
  1141.03        500.000        3353.31     
  1137.82        500.000        3353.72     
  1134.62        500.000        3354.13     
  1131.41        500.000        3354.54     
  1128.21        500.000        3354.68     
  1125.00        500.000        3355.09     
  1121.79        500.000        3355.49     
  1118.59        500.000        3355.90     
  1115.38        500.000        3356.31     
  1112.18        500.000        3356.72     
  1108.97        500.000        3357.12     
  1105.77        500.000        3357.53     
  1102.56        500.000        3357.70     
  1099.36        500.000        3358.10     
  1096.15        500.000        3358.51     
  1092.95        500.000        3358.91     
  1089.74        500.000        3359.32     
  1086.54        500.000        3359.72     
  1083.33        500.000        3360.13     
  1080.13        500.000        3360.53     
  1076.92        500.000        3360.73     
  1073.72        500.000        3361.13     
  1070.51        500.000        3361.53     
  1067.31        500.000        3361.94     
  1064.10        500.000        3362.25     
  1060.90        500.000        3362.63     
  1057.69        500.000        3363.02     
  1054.49        500.000        3363.39     
  1051.28        500.000        3363.77     
  1048.08        500.000        3364.17     
  1044.87        500.000        3364.58     
  1041.67        500.000        3364.98     
  1038.46        500.000        3365.38     
  1035.26        500.000        3365.78     
  1032.05        500.000        3366.18     
  1028.85        500.000        3366.58     
  1025.64        500.000        3366.80     
  1022.44        500.000        3367.20     
  1019.23        500.000        3367.60     
  1016.03        500.000        3368.00     
  1012.82        500.000        3368.40     
  1009.62        500.000        3368.80     
  1006.41        500.000        3369.20     
  1003.21        500.000        3369.60     
  1000.00        500.000        3369.84     
