|6.6.6
Archiving\03_Data\eqLP/QFM_m2.75/Y98/Y98_6.tab                            
           1
T(K)    
  0.000000000000000E+000
  0.000000000000000E+000
           0
           3
T(K)           P(bar)         rho,kg/m3     
  2000.00        500.000        3600.76     
  1996.79        500.000        3601.24     
  1993.59        500.000        3601.72     
  1990.38        500.000        3602.21     
  1987.18        500.000        3602.69     
  1983.97        500.000        3603.17     
  1980.77        500.000        3603.66     
  1977.56        500.000        3604.14     
  1974.36        500.000        3604.62     
  1971.15        500.000        3605.11     
  1967.95        500.000        3605.59     
  1964.74        500.000        3606.07     
  1961.54        500.000        3606.55     
  1958.33        500.000        3607.03     
  1955.13        500.000        3607.51     
  1951.92        500.000        3608.00     
  1948.72        500.000        3608.48     
  1945.51        500.000        3608.96     
  1942.31        500.000        3609.44     
  1939.10        500.000        3609.92     
  1935.90        500.000        3610.40     
  1932.69        500.000        3610.88     
  1929.49        500.000        3611.36     
  1926.28        500.000        3611.84     
  1923.08        500.000        3612.32     
  1919.87        500.000        3612.79     
  1916.67        500.000        3613.27     
  1913.46        500.000        3613.75     
  1910.26        500.000        3614.23     
  1907.05        500.000        3614.71     
  1903.85        500.000        3615.19     
  1900.64        500.000        3615.66     
  1897.44        500.000        3616.14     
  1894.23        500.000        3616.62     
  1891.03        500.000        3617.09     
  1887.82        500.000        3617.57     
  1884.62        500.000        3618.05     
  1881.41        500.000        3618.52     
  1878.21        500.000        3619.00     
  1875.00        500.000        3619.48     
  1871.79        500.000        3619.95     
  1868.59        500.000        3620.43     
  1865.38        500.000        3620.90     
  1862.18        500.000        3621.38     
  1858.97        500.000        3621.85     
  1855.77        500.000        3622.33     
  1852.56        500.000        3622.80     
  1849.36        500.000        3623.28     
  1846.15        500.000        3623.75     
  1842.95        500.000        3624.22     
  1839.74        500.000        3624.70     
  1836.54        500.000        3625.17     
  1833.33        500.000        3625.64     
  1830.13        500.000        3626.12     
  1826.92        500.000        3626.59     
  1823.72        500.000        3627.06     
  1820.51        500.000        3627.54     
  1817.31        500.000        3628.01     
  1814.10        500.000        3628.48     
  1810.90        500.000        3628.95     
  1807.69        500.000        3629.42     
  1804.49        500.000        3629.89     
  1801.28        500.000        3630.37     
  1798.08        500.000        3630.84     
  1794.87        500.000        3631.31     
  1791.67        500.000        3631.78     
  1788.46        500.000        3632.25     
  1785.26        500.000        3632.72     
  1782.05        500.000        3633.19     
  1778.85        500.000        3633.66     
  1775.64        500.000        3634.13     
  1772.44        500.000        3634.60     
  1769.23        500.000        3635.07     
  1766.03        500.000        3635.54     
  1762.82        500.000        3636.00     
  1759.62        500.000        3636.47     
  1756.41        500.000        3636.94     
  1753.21        500.000        3637.41     
  1750.00        500.000        3637.88     
  1746.79        500.000        3638.34     
  1743.59        500.000        3638.81     
  1740.38        500.000        3639.28     
  1737.18        500.000        3639.75     
  1733.97        500.000        3640.21     
  1730.77        500.000        3640.68     
  1727.56        500.000        3641.15     
  1724.36        500.000        3641.61     
  1721.15        500.000        3642.08     
  1717.95        500.000        3642.54     
  1714.74        500.000        3643.01     
  1711.54        500.000        3643.48     
  1708.33        500.000        3643.94     
  1705.13        500.000        3644.41     
  1701.92        500.000        3644.87     
  1698.72        500.000        3645.34     
  1695.51        500.000        3645.80     
  1692.31        500.000        3646.26     
  1689.10        500.000        3646.73     
  1685.90        500.000        3650.78     
  1682.69        500.000        3663.49     
  1679.49        500.000        3675.85     
  1676.28        500.000        3687.54     
  1673.08        500.000        3698.93     
  1669.87        500.000        3710.01     
  1666.67        500.000        3720.81     
  1663.46        500.000        3731.07     
  1660.26        500.000        3741.08     
  1657.05        500.000        3750.76     
  1653.85        500.000        3675.62     
  1650.64        500.000        3540.65     
  1647.44        500.000        3491.50     
  1644.23        500.000        3477.35     
  1641.03        500.000        3466.49     
  1637.82        500.000        3453.48     
  1634.62        500.000        3443.98     
  1631.41        500.000        3436.77     
  1628.21        500.000        3431.16     
  1625.00        500.000        3426.69     
  1621.79        500.000        3423.06     
  1618.59        500.000        3420.08     
  1615.38        500.000        3417.60     
  1612.18        500.000        3416.58     
  1608.97        500.000        3415.76     
  1605.77        500.000        3415.10     
  1602.56        500.000        3414.58     
  1599.36        500.000        3414.18     
  1596.15        500.000        3413.86     
  1592.95        500.000        3413.62     
  1589.74        500.000        3413.46     
  1586.54        500.000        3414.02     
  1583.33        500.000        3414.57     
  1580.13        500.000        3415.12     
  1576.92        500.000        3415.66     
  1573.72        500.000        3412.61     
  1570.51        500.000        3401.45     
  1567.31        500.000        3392.49     
  1564.10        500.000        3384.79     
  1560.90        500.000        3379.35     
  1557.69        500.000        3374.52     
  1554.49        500.000        3370.22     
  1551.28        500.000        3366.37     
  1548.08        500.000        3362.90     
  1544.87        500.000        3359.77     
  1541.67        500.000        3356.93     
  1538.46        500.000        3354.36     
  1535.26        500.000        3352.75     
  1532.05        500.000        3351.27     
  1528.85        500.000        3349.90     
  1525.64        500.000        3348.65     
  1522.44        500.000        3347.50     
  1519.23        500.000        3346.43     
  1516.03        500.000        3345.45     
  1512.82        500.000        3344.54     
  1509.62        500.000        3343.95     
  1506.41        500.000        3343.41     
  1503.21        500.000        3342.92     
  1500.00        500.000        3342.47     
  1496.79        500.000        3342.17     
  1493.59        500.000        3341.91     
  1490.38        500.000        3342.00     
  1487.18        500.000        3342.19     
  1483.97        500.000        3342.41     
  1480.77        500.000        3342.64     
  1477.56        500.000        3342.90     
  1474.36        500.000        3343.10     
  1471.15        500.000        3342.44     
  1467.95        500.000        3342.05     
  1464.74        500.000        3342.51     
  1461.54        500.000        3341.80     
  1458.33        500.000        3342.25     
  1455.13        500.000        3342.70     
  1451.92        500.000        3343.15     
  1448.72        500.000        3342.78     
  1445.51        500.000        3343.22     
  1442.31        500.000        3343.66     
  1439.10        500.000        3344.20     
  1435.90        500.000        3344.81     
  1432.69        500.000        3337.90     
  1429.49        500.000        3332.09     
  1426.28        500.000        3332.53     
  1423.08        500.000        3323.66     
  1419.87        500.000        3324.10     
  1416.67        500.000        3324.53     
  1413.46        500.000        3324.96     
  1410.26        500.000        3313.45     
  1407.05        500.000        3313.88     
  1403.85        500.000        3314.31     
  1400.64        500.000        3314.73     
  1397.44        500.000        3315.16     
  1394.23        500.000        3315.58     
  1391.03        500.000        3316.01     
  1387.82        500.000        3316.43     
  1384.62        500.000        3302.47     
  1381.41        500.000        3302.89     
  1378.21        500.000        3303.30     
  1375.00        500.000        3303.72     
  1371.79        500.000        3304.13     
  1368.59        500.000        3304.55     
  1365.38        500.000        3304.96     
  1362.18        500.000        3305.38     
  1358.97        500.000        3295.49     
  1355.77        500.000        3295.90     
  1352.56        500.000        3296.31     
  1349.36        500.000        3296.72     
  1346.15        500.000        3297.13     
  1342.95        500.000        3297.53     
  1339.74        500.000        3297.94     
  1336.54        500.000        3298.35     
  1333.33        500.000        3290.09     
  1330.13        500.000        3290.50     
  1326.92        500.000        3290.90     
  1323.72        500.000        3291.30     
  1320.51        500.000        3287.80     
  1317.31        500.000        3287.78     
  1314.10        500.000        3288.11     
  1310.90        500.000        3288.51     
  1307.69        500.000        3288.73     
  1304.49        500.000        3289.13     
  1301.28        500.000        3289.53     
  1298.08        500.000        3289.93     
  1294.87        500.000        3290.33     
  1291.67        500.000        3290.73     
  1288.46        500.000        3291.13     
  1285.26        500.000        3291.52     
  1282.05        500.000        3291.31     
  1278.85        500.000        3291.71     
  1275.64        500.000        3292.10     
  1272.44        500.000        3292.50     
  1269.23        500.000        3292.90     
  1266.03        500.000        3293.29     
  1262.82        500.000        3293.69     
  1259.62        500.000        3294.08     
  1256.41        500.000        3293.91     
  1253.21        500.000        3294.31     
  1250.00        500.000        3294.70     
  1246.79        500.000        3295.10     
  1243.59        500.000        3295.49     
  1240.38        500.000        3295.88     
  1237.18        500.000        3296.28     
  1233.97        500.000        3296.67     
  1230.77        500.000        3296.53     
  1227.56        500.000        3296.92     
  1224.36        500.000        3297.31     
  1221.15        500.000        3297.70     
  1217.95        500.000        3298.09     
  1214.74        500.000        3298.48     
  1211.54        500.000        3298.87     
  1208.33        500.000        3299.26     
  1205.13        500.000        3299.18     
  1201.92        500.000        3299.57     
  1198.72        500.000        3299.96     
  1195.51        500.000        3300.35     
  1192.31        500.000        3300.74     
  1189.10        500.000        3301.12     
  1185.90        500.000        3301.51     
  1182.69        500.000        3301.90     
  1179.49        500.000        3301.84     
  1176.28        500.000        3302.23     
  1173.08        500.000        3302.61     
  1169.87        500.000        3303.00     
  1166.67        500.000        3303.38     
  1163.46        500.000        3303.77     
  1160.26        500.000        3304.16     
  1157.05        500.000        3304.54     
  1153.85        500.000        3304.52     
  1150.64        500.000        3304.91     
  1147.44        500.000        3305.29     
  1144.23        500.000        3305.67     
  1141.03        500.000        3306.06     
  1137.82        500.000        3306.44     
  1134.62        500.000        3306.82     
  1131.41        500.000        3307.21     
  1128.21        500.000        3307.19     
  1125.00        500.000        3307.58     
  1121.79        500.000        3307.96     
  1118.59        500.000        3308.34     
  1115.38        500.000        3308.72     
  1112.18        500.000        3309.10     
  1108.97        500.000        3309.48     
  1105.77        500.000        3309.86     
  1102.56        500.000        3309.88     
  1099.36        500.000        3310.26     
  1096.15        500.000        3310.64     
  1092.95        500.000        3311.02     
  1089.74        500.000        3311.40     
  1086.54        500.000        3311.78     
  1083.33        500.000        3312.16     
  1080.13        500.000        3312.53     
  1076.92        500.000        3312.56     
  1073.72        500.000        3312.94     
  1070.51        500.000        3313.32     
  1067.31        500.000        3313.69     
  1064.10        500.000        3314.07     
  1060.90        500.000        3314.45     
  1057.69        500.000        3314.82     
  1054.49        500.000        3315.20     
  1051.28        500.000        3315.27     
  1048.08        500.000        3315.65     
  1044.87        500.000        3316.02     
  1041.67        500.000        3316.40     
  1038.46        500.000        3316.77     
  1035.26        500.000        3317.14     
  1032.05        500.000        3317.52     
  1028.85        500.000        3317.89     
  1025.64        500.000        3317.95     
  1022.44        500.000        3318.32     
  1019.23        500.000        3318.70     
  1016.03        500.000        3319.07     
  1012.82        500.000        3319.44     
  1009.62        500.000        3319.81     
  1006.41        500.000        3320.18     
  1003.21        500.000        3320.55     
  1000.00        500.000        3320.64     
