|6.6.6
Archiving\03_Data\DeqfracLP/QFM_m3.75/K22/K22_6.tab                   
           1
T(K)    
  0.000000000000000E+000
  0.000000000000000E+000
           0
           3
T(K)           P(bar)         rho,kg/m3     
  1599.36        500.000        3205.09     
  1597.86        500.000        3207.37     
  1596.36        500.000        3210.48     
  1594.85        500.000        3206.62     
  1593.35        500.000        3207.38     
  1591.85        500.000        3207.54     
  1590.35        500.000        3207.38     
  1588.84        500.000        3208.25     
  1587.34        500.000        3208.24     
  1585.84        500.000        3210.08     
  1584.34        500.000        3211.06     
  1582.84        500.000        3211.02     
  1581.33        500.000        3211.80     
  1579.83        500.000        3211.56     
  1578.33        500.000        3212.08     
  1576.83        500.000        3212.41     
  1575.33        500.000        3212.94     
  1573.82        500.000        3214.64     
  1572.32        500.000        3213.89     
  1570.82        500.000        3213.82     
  1569.32        500.000        3213.64     
  1567.81        500.000        3215.15     
  1566.31        500.000        3214.03     
  1564.81        500.000        3215.02     
  1563.31        500.000        3217.09     
  1561.81        500.000        3217.06     
  1560.30        500.000        3217.63     
  1558.80        500.000        3215.71     
  1557.30        500.000        3215.80     
  1555.80        500.000        3219.40     
  1554.30        500.000        3216.77     
  1552.79        500.000        3219.43     
  1551.29        500.000        3223.73     
  1549.79        500.000        3217.82     
  1548.29        500.000        3218.15     
  1546.78        500.000        3218.97     
  1545.28        500.000        3218.55     
  1543.78        500.000        3219.47     
  1542.28        500.000        3219.53     
  1540.78        500.000        3220.24     
  1539.27        500.000        3220.91     
  1537.77        500.000        3221.05     
  1536.27        500.000        3234.10     
  1534.77        500.000        3221.77     
  1533.27        500.000        3222.44     
  1531.76        500.000        3222.58     
  1530.26        500.000        3223.18     
  1528.76        500.000        3223.39     
  1527.26        500.000        3223.66     
  1525.75        500.000        3224.25     
  1524.25        500.000        3224.29     
  1522.75        500.000        3224.84     
  1521.25        500.000        3225.78     
  1519.75        500.000        3225.50     
  1518.24        500.000        3225.93     
  1516.74        500.000        3225.98     
  1515.24        500.000        3226.70     
  1513.74        500.000        3227.39     
  1512.23        500.000        3227.46     
  1510.73        500.000        3227.86     
  1509.23        500.000        3228.66     
  1507.73        500.000        3229.26     
  1506.23        500.000        3229.32     
  1504.72        500.000        3229.01     
  1503.22        500.000        3218.86     
  1501.72        500.000        3217.35     
  1500.22        500.000        3219.19     
  1498.72        500.000        3216.19     
  1497.21        500.000        3220.46     
  1495.71        500.000        3217.48     
  1494.21        500.000        3218.10     
  1492.71        500.000        3218.51     
  1491.20        500.000        3219.97     
  1489.70        500.000        3220.74     
  1488.20        500.000        3220.94     
  1486.70        500.000        3220.46     
  1485.20        500.000        3223.17     
  1483.69        500.000        3223.91     
  1482.19        500.000        3224.23     
  1480.69        500.000        3218.18     
  1479.19        500.000        3217.43     
  1477.69        500.000        3218.92     
  1476.18        500.000        3219.70     
  1474.68        500.000        3220.15     
  1473.18        500.000        3221.37     
  1471.68        500.000        3222.42     
  1470.17        500.000        3222.91     
  1468.67        500.000        3224.51     
  1467.17        500.000        3225.43     
  1465.67        500.000        3227.04     
  1464.17        500.000        3227.35     
  1462.66        500.000        3228.39     
  1461.16        500.000        3229.37     
  1459.66        500.000        3230.74     
  1458.16        500.000        3231.59     
  1456.66        500.000        3232.32     
  1455.15        500.000        3233.70     
  1453.65        500.000        3234.43     
  1452.15        500.000        3235.49     
  1450.65        500.000        3236.38     
  1449.14        500.000        3237.72     
  1447.64        500.000        3238.96     
  1446.14        500.000        3239.60     
  1444.64        500.000        3240.64     
  1443.14        500.000        3241.68     
  1441.63        500.000        3084.09     
  1440.13        500.000        3074.05     
  1438.63        500.000        3075.31     
  1437.13        500.000        3076.40     
  1435.63        500.000        3077.69     
  1434.12        500.000        3078.89     
  1432.62        500.000        3080.03     
  1431.12        500.000        3081.21     
  1429.62        500.000        3082.15     
  1428.11        500.000        3083.43     
  1426.61        500.000        3084.65     
  1425.11        500.000        3085.72     
  1423.61        500.000        3086.77     
  1422.11        500.000        3088.00     
  1420.60        500.000        3089.16     
  1419.10        500.000        3090.28     
  1417.60        500.000        3091.36     
  1416.10        500.000        3092.58     
  1414.59        500.000        3093.51     
  1413.09        500.000        3094.89     
  1411.59        500.000        3095.84     
  1410.09        500.000        3097.04     
  1408.59        500.000        3097.95     
  1407.08        500.000        3099.34     
  1405.58        500.000        3100.24     
  1404.08        500.000        3101.37     
  1402.58        500.000        3102.43     
  1401.08        500.000        3103.67     
  1399.57        500.000        3104.91     
  1398.07        500.000        3105.82     
  1396.57        500.000        3106.84     
  1395.07        500.000        3107.96     
  1393.56        500.000        3109.14     
  1392.06        500.000        3110.09     
  1390.56        500.000        3111.27     
  1389.06        500.000        3112.35     
  1387.56        500.000        3113.46     
  1386.05        500.000        3115.00     
  1384.55        500.000        3115.94     
  1383.05        500.000        3116.65     
  1381.55        500.000        3117.91     
  1380.05        500.000        3118.89     
  1378.54        500.000        3120.07     
  1377.04        500.000        3121.13     
  1375.54        500.000        3122.28     
  1374.04        500.000        3123.35     
  1372.53        500.000        3124.50     
  1371.03        500.000        3125.71     
  1369.53        500.000        3126.70     
  1368.03        500.000        3127.72     
  1366.53        500.000        3128.65     
  1365.02        500.000        3130.03     
  1363.52        500.000        3131.05     
  1362.02        500.000        3132.41     
  1360.52        500.000        3133.33     
  1359.02        500.000        3134.43     
  1357.51        500.000        3135.61     
  1356.01        500.000        3136.53     
  1354.51        500.000        3137.62     
  1353.01        500.000        3138.83     
  1351.50        500.000        3140.01     
  1350.00        500.000        3141.16     
  1348.50        500.000        3142.49     
  1347.00        500.000        3143.10     
  1345.50        500.000        3143.97     
  1343.99        500.000        3145.49     
  1342.49        500.000        3146.50     
  1340.99        500.000        3147.52     
  1339.49        500.000        3148.93     
  1337.98        500.000        3149.96     
  1336.48        500.000        3151.02     
  1334.98        500.000        3151.76     
  1333.48        500.000        3153.20     
  1331.98        500.000        3154.16     
  1330.47        500.000        3155.00     
  1328.97        500.000        3156.56     
  1327.47        500.000        3157.47     
  1325.97        500.000        3158.53     
  1324.47        500.000        3159.45     
  1322.96        500.000        3160.71     
  1321.46        500.000        3161.97     
  1319.96        500.000        3162.86     
  1318.46        500.000        3163.87     
  1316.95        500.000        3164.89     
  1315.45        500.000        3165.90     
  1313.95        500.000        3167.08     
  1312.45        500.000        3168.14     
  1310.95        500.000        3169.08     
  1309.44        500.000        3170.25     
  1307.94        500.000        3171.26     
  1306.44        500.000        3172.15     
  1304.94        500.000        3173.20     
  1303.44        500.000        3174.32     
  1301.93        500.000        3175.05     
  1300.43        500.000        3176.46     
  1298.93        500.000        3177.21     
  1297.43        500.000        3178.30     
  1295.92        500.000        3179.46     
  1294.42        500.000        3180.51     
  1292.92        500.000        3180.94     
  1291.42        500.000        3124.70     
  1289.92        500.000        3227.34     
  1288.41        500.000        3185.98     
  1286.91        500.000        3186.17     
  1285.41        500.000        3186.07     
  1283.91        500.000        3186.80     
  1282.41        500.000        3186.66     
  1280.90        500.000        3187.05     
  1279.40        500.000        3186.91     
  1277.90        500.000        3186.93     
  1276.40        500.000        3186.77     
  1274.89        500.000        3186.41     
  1273.39        500.000        3186.40     
  1271.89        500.000        2752.81     
  1270.39        500.000        2756.58     
  1268.89        500.000        2755.96     
  1267.38        500.000        2755.04     
  1265.88        500.000        2757.23     
  1264.38        500.000        2931.14     
  1262.88        500.000        2797.56     
  1261.38        500.000        2577.94     
  1259.87        500.000        2685.09     
  1258.37        500.000        2719.34     
  1256.87        500.000        2685.17     
  1255.37        500.000        2717.14     
  1253.86        500.000        3476.61     
  1252.36        500.000        2917.38     
  1250.86        500.000        2726.79     
  1249.36        500.000        2754.79     
  1247.86        500.000        2737.17     
  1246.35        500.000        2740.68     
  1244.85        500.000        2739.69     
  1243.35        500.000        2714.54     
  1241.85        500.000        2830.89     
  1240.34        500.000        2733.94     
  1238.84        500.000        2753.66     
  1237.34        500.000        2738.70     
  1235.84        500.000        2747.99     
  1234.34        500.000        2753.99     
  1232.83        500.000        2752.41     
  1231.33        500.000        2803.87     
  1229.83        500.000        2628.16     
  1228.33        500.000        3245.33     
  1226.83        500.000        2646.08     
  1225.32        500.000        3216.08     
  1223.82        500.000        2565.43     
  1222.32        500.000        2585.64     
  1220.82        500.000        2771.02     
  1219.31        500.000        2763.90     
  1217.81        500.000        2682.81     
  1216.31        500.000        3311.27     
  1214.81        500.000        2653.67     
  1213.31        500.000        2746.30     
  1211.80        500.000        2754.56     
  1210.30        500.000        2877.25     
  1208.80        500.000        2710.80     
  1207.30        500.000        2712.59     
  1205.80        500.000        2699.91     
  1204.29        500.000        2978.57     
  1202.79        500.000        2739.85     
  1201.29        500.000        2714.46     
  1199.79        500.000        2863.20     
  1198.28        500.000        2676.61     
  1196.78        500.000        2764.49     
  1195.28        500.000        2557.74     
  1193.78        500.000        2548.90     
  1192.28        500.000        2610.82     
  1190.77        500.000        2618.95     
  1189.27        500.000        2619.04     
  1187.77        500.000        2619.10     
  1186.27        500.000        2619.16     
  1184.77        500.000        2619.20     
  1183.26        500.000        2619.27     
  1181.76        500.000        2619.35     
  1180.26        500.000        2619.41     
  1178.76        500.000        2619.48     
  1177.25        500.000        2619.53     
  1175.75        500.000        2619.58     
  1174.25        500.000        2619.67     
  1172.75        500.000        2619.73     
  1171.25        500.000        2619.80     
  1169.74        500.000        2619.70     
  1168.24        500.000        2619.89     
  1166.74        500.000        2620.04     
  1165.24        500.000        2620.06     
  1163.73        500.000        2620.12     
  1162.23        500.000        2620.11     
  1160.73        500.000        2620.20     
  1159.23        500.000        2620.31     
  1157.73        500.000        2620.38     
  1156.22        500.000        2620.45     
  1154.72        500.000        2620.52     
  1153.22        500.000        2620.57     
  1151.72        500.000        2620.56     
  1150.22        500.000        2620.62     
  1148.71        500.000        2620.67     
  1147.21        500.000        2620.83     
  1145.71        500.000        2620.90     
  1144.21        500.000        2620.86     
  1142.70        500.000        2620.92     
  1141.20        500.000        2620.98     
  1139.70        500.000        2621.07     
  1138.20        500.000        2621.18     
  1136.70        500.000        2621.11     
  1135.19        500.000        2621.24     
  1133.69        500.000        2621.31     
  1132.19        500.000        2621.30     
  1130.69        500.000        2621.36     
  1129.19        500.000        2621.43     
  1127.68        500.000        2621.49     
  1126.18        500.000        2621.55     
  1124.68        500.000        2621.61     
  1123.18        500.000        2621.68     
  1121.67        500.000        2621.74     
  1120.17        500.000        2621.87     
  1118.67        500.000        2621.86     
  1117.17        500.000        2621.91     
  1115.67        500.000        2622.07     
  1114.16        500.000        2622.20     
  1112.66        500.000        2622.10     
  1111.16        500.000        2622.26     
  1109.66        500.000        2622.23     
  1108.16        500.000        2622.39     
  1106.65        500.000        2622.45     
  1105.15        500.000        2622.52     
  1103.65        500.000        2622.58     
  1102.15        500.000        2622.75     
  1100.64        500.000        2622.69     
  1099.14        500.000        2622.77     
  1097.64        500.000        2622.87     
  1096.14        500.000        2622.88     
  1094.64        500.000        2623.04     
  1093.13        500.000        2623.00     
  1091.63        500.000        2623.17     
  1090.13        500.000        2623.13     
  1088.63        500.000        2623.29     
  1087.13        500.000        2623.26     
  1085.62        500.000        2623.33     
  1084.12        500.000        2623.36     
  1082.62        500.000        2623.45     
  1081.12        500.000        2623.51     
  1079.61        500.000        2623.58     
  1078.11        500.000        2623.64     
  1076.61        500.000        2623.70     
  1075.11        500.000        2623.76     
  1073.61        500.000        2623.83     
  1072.10        500.000        2623.89     
  1070.60        500.000        2623.95     
  1069.10        500.000        2624.01     
  1067.60        500.000        2624.08     
  1066.09        500.000        2624.14     
  1064.59        500.000        2624.20     
  1063.09        500.000        2624.26     
  1061.59        500.000        2624.32     
  1060.09        500.000        2624.48     
  1058.58        500.000        2624.54     
  1057.08        500.000        2624.61     
  1055.58        500.000        2624.67     
  1054.08        500.000        2624.72     
  1052.58        500.000        2624.69     
  1051.07        500.000        2624.85     
  1049.57        500.000        2624.91     
  1048.07        500.000        2624.91     
  1046.57        500.000        2625.02     
  1045.06        500.000        2625.04     
  1043.56        500.000        2624.97     
  1042.06        500.000        2625.21     
  1040.56        500.000        2625.27     
  1039.06        500.000        2625.23     
  1037.55        500.000        2625.38     
  1036.05        500.000        2625.46     
  1034.55        500.000        2625.36     
  1033.05        500.000        2625.42     
  1031.55        500.000        2625.48     
  1030.04        500.000        2625.54     
  1028.54        500.000        2625.60     
  1027.04        500.000        2625.66     
  1025.54        500.000        2625.72     
  1024.03        500.000        2625.78     
  1022.53        500.000        2625.84     
  1021.03        500.000        2626.00     
  1019.53        500.000        2626.11     
  1018.03        500.000        2626.17     
  1016.52        500.000        2626.22     
  1015.02        500.000        2626.29     
  1013.52        500.000        2626.35     
  1012.02        500.000        2626.27     
  1010.52        500.000        2626.39     
  1009.01        500.000        2626.40     
  1007.51        500.000        2626.58     
  1006.01        500.000        2626.58     
  1004.51        500.000        2626.58     
  1003.00        500.000        2626.64     
  1001.50        500.000        2626.70     
  1000.00        500.000        2626.76     
