|6.6.6
Archiving\03_Data\DeqfracLP/QFM_m0.5/YM20/YM20_2.tab                    
           1
T(K)    
  0.000000000000000E+000
  0.000000000000000E+000
           0
           3
T(K)           P(bar)         Sp(TH),kg     
  1576.92        500.000       0.385280E-005
  1575.47        500.000                 NaN
  1574.03        500.000                 NaN
  1572.58        500.000                 NaN
  1571.14        500.000                 NaN
  1569.69        500.000                 NaN
  1568.24        500.000                 NaN
  1566.80        500.000                 NaN
  1565.35        500.000                 NaN
  1563.91        500.000                 NaN
  1562.46        500.000                 NaN
  1561.01        500.000                 NaN
  1559.57        500.000                 NaN
  1558.12        500.000                 NaN
  1556.68        500.000                 NaN
  1555.23        500.000                 NaN
  1553.79        500.000                 NaN
  1552.34        500.000                 NaN
  1550.89        500.000                 NaN
  1549.45        500.000                 NaN
  1548.00        500.000                 NaN
  1546.56        500.000                 NaN
  1545.11        500.000                 NaN
  1543.66        500.000                 NaN
  1542.22        500.000                 NaN
  1540.77        500.000                 NaN
  1539.33        500.000                 NaN
  1537.88        500.000                 NaN
  1536.43        500.000                 NaN
  1534.99        500.000                 NaN
  1533.54        500.000                 NaN
  1532.10        500.000                 NaN
  1530.65        500.000                 NaN
  1529.20        500.000                 NaN
  1527.76        500.000                 NaN
  1526.31        500.000                 NaN
  1524.87        500.000                 NaN
  1523.42        500.000                 NaN
  1521.98        500.000                 NaN
  1520.53        500.000                 NaN
  1519.08        500.000                 NaN
  1517.64        500.000                 NaN
  1516.19        500.000                 NaN
  1514.75        500.000                 NaN
  1513.30        500.000                 NaN
  1511.85        500.000                 NaN
  1510.41        500.000                 NaN
  1508.96        500.000                 NaN
  1507.52        500.000                 NaN
  1506.07        500.000                 NaN
  1504.62        500.000                 NaN
  1503.18        500.000                 NaN
  1501.73        500.000                 NaN
  1500.29        500.000                 NaN
  1498.84        500.000                 NaN
  1497.39        500.000                 NaN
  1495.95        500.000                 NaN
  1494.50        500.000                 NaN
  1493.06        500.000                 NaN
  1491.61        500.000                 NaN
  1490.17        500.000                 NaN
  1488.72        500.000                 NaN
  1487.27        500.000                 NaN
  1485.83        500.000                 NaN
  1484.38        500.000                 NaN
  1482.94        500.000                 NaN
  1481.49        500.000                 NaN
  1480.04        500.000                 NaN
  1478.60        500.000                 NaN
  1477.15        500.000                 NaN
  1475.71        500.000                 NaN
  1474.26        500.000                 NaN
  1472.81        500.000                 NaN
  1471.37        500.000                 NaN
  1469.92        500.000                 NaN
  1468.48        500.000                 NaN
  1467.03        500.000                 NaN
  1465.58        500.000                 NaN
  1464.14        500.000                 NaN
  1462.69        500.000                 NaN
  1461.25        500.000                 NaN
  1459.80        500.000                 NaN
  1458.35        500.000                 NaN
  1456.91        500.000                 NaN
  1455.46        500.000                 NaN
  1454.02        500.000                 NaN
  1452.57        500.000                 NaN
  1451.13        500.000                 NaN
  1449.68        500.000                 NaN
  1448.23        500.000                 NaN
  1446.79        500.000                 NaN
  1445.34        500.000                 NaN
  1443.90        500.000                 NaN
  1442.45        500.000                 NaN
  1441.00        500.000                 NaN
  1439.56        500.000                 NaN
  1438.11        500.000                 NaN
  1436.67        500.000                 NaN
  1435.22        500.000                 NaN
  1433.77        500.000                 NaN
  1432.33        500.000                 NaN
  1430.88        500.000                 NaN
  1429.44        500.000                 NaN
  1427.99        500.000                 NaN
  1426.54        500.000                 NaN
  1425.10        500.000                 NaN
  1423.65        500.000                 NaN
  1422.21        500.000                 NaN
  1420.76        500.000                 NaN
  1419.32        500.000                 NaN
  1417.87        500.000                 NaN
  1416.42        500.000                 NaN
  1414.98        500.000                 NaN
  1413.53        500.000                 NaN
  1412.09        500.000                 NaN
  1410.64        500.000                 NaN
  1409.19        500.000                 NaN
  1407.75        500.000                 NaN
  1406.30        500.000                 NaN
  1404.86        500.000                 NaN
  1403.41        500.000                 NaN
  1401.96        500.000                 NaN
  1400.52        500.000                 NaN
  1399.07        500.000                 NaN
  1397.63        500.000                 NaN
  1396.18        500.000                 NaN
  1394.73        500.000                 NaN
  1393.29        500.000                 NaN
  1391.84        500.000                 NaN
  1390.40        500.000                 NaN
  1388.95        500.000                 NaN
  1387.51        500.000                 NaN
  1386.06        500.000                 NaN
  1384.61        500.000                 NaN
  1383.17        500.000                 NaN
  1381.72        500.000                 NaN
  1380.28        500.000                 NaN
  1378.83        500.000                 NaN
  1377.38        500.000                 NaN
  1375.94        500.000                 NaN
  1374.49        500.000                 NaN
  1373.05        500.000                 NaN
  1371.60        500.000                 NaN
  1370.15        500.000                 NaN
  1368.71        500.000                 NaN
  1367.26        500.000                 NaN
  1365.82        500.000                 NaN
  1364.37        500.000                 NaN
  1362.92        500.000                 NaN
  1361.48        500.000                 NaN
  1360.03        500.000                 NaN
  1358.59        500.000                 NaN
  1357.14        500.000                 NaN
  1355.70        500.000                 NaN
  1354.25        500.000                 NaN
  1352.80        500.000                 NaN
  1351.36        500.000                 NaN
  1349.91        500.000                 NaN
  1348.47        500.000                 NaN
  1347.02        500.000                 NaN
  1345.57        500.000                 NaN
  1344.13        500.000                 NaN
  1342.68        500.000                 NaN
  1341.24        500.000                 NaN
  1339.79        500.000                 NaN
  1338.34        500.000                 NaN
  1336.90        500.000                 NaN
  1335.45        500.000                 NaN
  1334.01        500.000                 NaN
  1332.56        500.000                 NaN
  1331.11        500.000                 NaN
  1329.67        500.000                 NaN
  1328.22        500.000                 NaN
  1326.78        500.000                 NaN
  1325.33        500.000                 NaN
  1323.88        500.000                 NaN
  1322.44        500.000                 NaN
  1320.99        500.000                 NaN
  1319.55        500.000                 NaN
  1318.10        500.000                 NaN
  1316.66        500.000                 NaN
  1315.21        500.000                 NaN
  1313.76        500.000                 NaN
  1312.32        500.000                 NaN
  1310.87        500.000                 NaN
  1309.43        500.000                 NaN
  1307.98        500.000                 NaN
  1306.53        500.000                 NaN
  1305.09        500.000                 NaN
  1303.64        500.000                 NaN
  1302.20        500.000                 NaN
  1300.75        500.000                 NaN
  1299.30        500.000                 NaN
  1297.86        500.000                 NaN
  1296.41        500.000                 NaN
  1294.97        500.000                 NaN
  1293.52        500.000                 NaN
  1292.07        500.000                 NaN
  1290.63        500.000                 NaN
  1289.18        500.000                 NaN
  1287.74        500.000                 NaN
  1286.29        500.000                 NaN
  1284.85        500.000                 NaN
  1283.40        500.000                 NaN
  1281.95        500.000                 NaN
  1280.51        500.000                 NaN
  1279.06        500.000                 NaN
  1277.62        500.000                 NaN
  1276.17        500.000                 NaN
  1274.72        500.000                 NaN
  1273.28        500.000                 NaN
  1271.83        500.000                 NaN
  1270.39        500.000                 NaN
  1268.94        500.000                 NaN
  1267.49        500.000       0.375754E-005
  1266.05        500.000       0.191691E-004
  1264.60        500.000       0.155164E-004
  1263.16        500.000       0.128412E-004
  1261.71        500.000       0.108234E-004
  1260.26        500.000       0.926224E-005
  1258.82        500.000       0.803548E-005
  1257.37        500.000       0.704958E-005
  1255.93        500.000       0.624362E-005
  1254.48        500.000       0.557167E-005
  1253.04        500.000       0.500881E-005
  1251.59        500.000       0.452916E-005
  1250.14        500.000       0.411756E-005
  1248.70        500.000       0.376329E-005
  1247.25        500.000       0.345135E-005
  1245.81        500.000       0.317516E-005
  1244.36        500.000       0.293035E-005
  1242.91        500.000       0.271455E-005
  1241.47        500.000       0.328876E-005
  1240.02        500.000       0.169344E-005
  1238.58        500.000       0.277829E-005
  1237.13        500.000       0.142793E-005
  1235.68        500.000       0.185234E-005
  1234.24        500.000       0.141790E-005
  1232.79        500.000       0.205701E-005
  1231.35        500.000       0.153373E-005
  1229.90        500.000       0.345098E-005
  1228.45        500.000       0.538139E-006
  1227.01        500.000       0.771090E-006
  1225.56        500.000       0.517941E-006
  1224.12        500.000       0.183053E-005
  1222.67        500.000       0.859354E-006
  1221.22        500.000                 NaN
  1219.78        500.000       0.176385E-005
  1218.33        500.000       0.849696E-006
  1216.89        500.000                 NaN
  1215.44        500.000                 NaN
  1214.00        500.000                 NaN
  1212.55        500.000       0.110496E-005
  1211.10        500.000                 NaN
  1209.66        500.000                 NaN
  1208.21        500.000                 NaN
  1206.77        500.000       0.104141E-006
  1205.32        500.000       0.687302E-006
  1203.87        500.000       0.575588E-006
  1202.43        500.000       0.744491E-006
  1200.98        500.000       0.193948E-005
  1199.54        500.000       0.357329E-005
  1198.09        500.000                 NaN
  1196.64        500.000                 NaN
  1195.20        500.000       0.241906E-005
  1193.75        500.000       0.947860E-006
  1192.31        500.000       0.882839E-006
  1190.86        500.000       0.716309E-006
  1189.41        500.000       0.651522E-006
  1187.97        500.000       0.674513E-006
  1186.52        500.000       0.862901E-006
  1185.08        500.000       0.955205E-006
  1183.63        500.000       0.353206E-005
  1182.19        500.000       0.360872E-005
  1180.74        500.000       0.353022E-005
  1179.29        500.000       0.352261E-005
  1177.85        500.000       0.351321E-005
  1176.40        500.000       0.346186E-005
  1174.96        500.000       0.345365E-005
  1173.51        500.000       0.344491E-005
  1172.06        500.000       0.353013E-005
  1170.62        500.000       0.341377E-005
  1169.17        500.000       0.339980E-005
  1167.73        500.000       0.341351E-005
  1166.28        500.000       0.340789E-005
  1164.83        500.000       0.347372E-005
  1163.39        500.000       0.342649E-005
  1161.94        500.000       0.341570E-005
  1160.50        500.000       0.340391E-005
  1159.05        500.000       0.339287E-005
  1157.60        500.000       0.334271E-005
  1156.16        500.000       0.337178E-005
  1154.71        500.000       0.332050E-005
  1153.27        500.000       0.334897E-005
  1151.82        500.000       0.333775E-005
  1150.38        500.000       0.332709E-005
  1148.93        500.000       0.331528E-005
  1147.48        500.000       0.330441E-005
  1146.04        500.000       0.325774E-005
  1144.59        500.000       0.328205E-005
  1143.15        500.000       0.327054E-005
  1141.70        500.000       0.325989E-005
  1140.25        500.000       0.324857E-005
  1138.81        500.000                 NaN
  1137.36        500.000                 NaN
  1135.92        500.000                 NaN
  1134.47        500.000                 NaN
  1133.02        500.000                 NaN
  1131.58        500.000                 NaN
  1130.13        500.000                 NaN
  1128.69        500.000                 NaN
  1127.24        500.000                 NaN
  1125.79        500.000                 NaN
  1124.35        500.000                 NaN
  1122.90        500.000                 NaN
  1121.46        500.000                 NaN
  1120.01        500.000                 NaN
  1118.57        500.000                 NaN
  1117.12        500.000                 NaN
  1115.67        500.000                 NaN
  1114.23        500.000                 NaN
  1112.78        500.000                 NaN
  1111.34        500.000                 NaN
  1109.89        500.000                 NaN
  1108.44        500.000                 NaN
  1107.00        500.000                 NaN
  1105.55        500.000                 NaN
  1104.11        500.000                 NaN
  1102.66        500.000                 NaN
  1101.21        500.000                 NaN
  1099.77        500.000                 NaN
  1098.32        500.000                 NaN
  1096.88        500.000                 NaN
  1095.43        500.000                 NaN
  1093.98        500.000                 NaN
  1092.54        500.000                 NaN
  1091.09        500.000                 NaN
  1089.65        500.000                 NaN
  1088.20        500.000                 NaN
  1086.75        500.000                 NaN
  1085.31        500.000                 NaN
  1083.86        500.000                 NaN
  1082.42        500.000                 NaN
  1080.97        500.000                 NaN
  1079.53        500.000                 NaN
  1078.08        500.000                 NaN
  1076.63        500.000                 NaN
  1075.19        500.000                 NaN
  1073.74        500.000                 NaN
  1072.30        500.000                 NaN
  1070.85        500.000                 NaN
  1069.40        500.000                 NaN
  1067.96        500.000                 NaN
  1066.51        500.000                 NaN
  1065.07        500.000                 NaN
  1063.62        500.000                 NaN
  1062.17        500.000                 NaN
  1060.73        500.000                 NaN
  1059.28        500.000                 NaN
  1057.84        500.000                 NaN
  1056.39        500.000                 NaN
  1054.94        500.000                 NaN
  1053.50        500.000                 NaN
  1052.05        500.000                 NaN
  1050.61        500.000                 NaN
  1049.16        500.000                 NaN
  1047.72        500.000                 NaN
  1046.27        500.000                 NaN
  1044.82        500.000                 NaN
  1043.38        500.000                 NaN
  1041.93        500.000                 NaN
  1040.49        500.000                 NaN
  1039.04        500.000                 NaN
  1037.59        500.000                 NaN
  1036.15        500.000                 NaN
  1034.70        500.000                 NaN
  1033.26        500.000                 NaN
  1031.81        500.000                 NaN
  1030.36        500.000                 NaN
  1028.92        500.000                 NaN
  1027.47        500.000                 NaN
  1026.03        500.000                 NaN
  1024.58        500.000                 NaN
  1023.13        500.000                 NaN
  1021.69        500.000                 NaN
  1020.24        500.000                 NaN
  1018.80        500.000                 NaN
  1017.35        500.000                 NaN
  1015.91        500.000                 NaN
  1014.46        500.000                 NaN
  1013.01        500.000                 NaN
  1011.57        500.000                 NaN
  1010.12        500.000                 NaN
  1008.68        500.000                 NaN
  1007.23        500.000                 NaN
  1005.78        500.000                 NaN
  1004.34        500.000                 NaN
  1002.89        500.000                 NaN
  1001.45        500.000                 NaN
  1000.00        500.000                 NaN
