|6.6.6
Archiving\03_Data\eqfrac/QFM_m1/LAR/LAR_6.tab                             
           1
T(K)    
  0.000000000000000E+000
  0.000000000000000E+000
           0
           3
T(K)           P(bar)         rho,kg/m3     
  1413.46        2500.00        3346.18     
  1412.42        2500.00        3345.79     
  1411.39        2500.00        3346.61     
  1410.35        2500.00        3348.25     
  1409.32        2500.00        3344.23     
  1408.28        2500.00        3349.20     
  1407.24        2500.00        3350.18     
  1406.21        2500.00        3350.92     
  1405.17        2500.00        3351.59     
  1404.13        2500.00        3241.09     
  1403.10        2500.00        3171.41     
  1402.06        2500.00        3171.48     
  1401.03        2500.00        3172.96     
  1399.99        2500.00        3174.69     
  1398.95        2500.00        3173.05     
  1397.92        2500.00        3180.82     
  1396.88        2500.00        3178.79     
  1395.84        2500.00        3180.27     
  1394.81        2500.00        3181.70     
  1393.77        2500.00        3183.23     
  1392.74        2500.00        3184.72     
  1391.70        2500.00        3186.04     
  1390.66        2500.00        3187.16     
  1389.63        2500.00        3188.74     
  1388.59        2500.00        3191.27     
  1387.55        2500.00        3191.99     
  1386.52        2500.00        3193.17     
  1385.48        2500.00        3194.70     
  1384.45        2500.00        3196.36     
  1383.41        2500.00        3197.48     
  1382.37        2500.00        3199.22     
  1381.34        2500.00        3200.52     
  1380.30        2500.00        3202.16     
  1379.26        2500.00        3203.48     
  1378.23        2500.00        3204.64     
  1377.19        2500.00        3206.33     
  1376.16        2500.00        3207.74     
  1375.12        2500.00        3209.26     
  1374.08        2500.00        3210.68     
  1373.05        2500.00        3212.23     
  1372.01        2500.00        3213.64     
  1370.97        2500.00        3214.96     
  1369.94        2500.00        3216.51     
  1368.90        2500.00        3217.71     
  1367.87        2500.00        3219.22     
  1366.83        2500.00        3221.18     
  1365.79        2500.00        3222.44     
  1364.76        2500.00        3223.87     
  1363.72        2500.00        3225.19     
  1362.68        2500.00        3227.00     
  1361.65        2500.00        3227.62     
  1360.61        2500.00        3229.43     
  1359.58        2500.00        3231.11     
  1358.54        2500.00        3232.62     
  1357.50        2500.00        3233.58     
  1356.47        2500.00        3235.01     
  1355.43        2500.00        3236.51     
  1354.39        2500.00        3241.72     
  1353.36        2500.00        3239.00     
  1352.32        2500.00        3240.48     
  1351.29        2500.00        3241.73     
  1350.25        2500.00        3243.13     
  1349.21        2500.00        3244.59     
  1348.18        2500.00        3245.97     
  1347.14        2500.00        3247.41     
  1346.10        2500.00        3248.57     
  1345.07        2500.00        3254.04     
  1344.03        2500.00        3246.57     
  1343.00        2500.00        3251.99     
  1341.96        2500.00        3253.69     
  1340.92        2500.00        3254.71     
  1339.89        2500.00        3256.13     
  1338.85        2500.00        3257.09     
  1337.81        2500.00        3258.55     
  1336.78        2500.00        3259.88     
  1335.74        2500.00        3260.84     
  1334.71        2500.00        3262.18     
  1333.67        2500.00        3263.34     
  1332.63        2500.00        3264.43     
  1331.60        2500.00        3265.57     
  1330.56        2500.00        3266.53     
  1329.52        2500.00        3267.79     
  1328.49        2500.00        3268.82     
  1327.45        2500.00        3269.85     
  1326.42        2500.00        3270.89     
  1325.38        2500.00        3271.79     
  1324.34        2500.00        3272.86     
  1323.31        2500.00        3273.76     
  1322.27        2500.00        3274.73     
  1321.23        2500.00        3275.87     
  1320.20        2500.00        3268.50     
  1319.16        2500.00        3285.15     
  1318.13        2500.00        3289.69     
  1317.09        2500.00        3269.14     
  1316.05        2500.00        3279.01     
  1315.02        2500.00        3280.79     
  1313.98        2500.00        3281.48     
  1312.94        2500.00        3282.14     
  1311.91        2500.00        3282.94     
  1310.87        2500.00        3283.64     
  1309.84        2500.00        3284.41     
  1308.80        2500.00        3284.91     
  1307.76        2500.00        3285.63     
  1306.73        2500.00        3286.20     
  1305.69        2500.00        3286.57     
  1304.65        2500.00        3287.67     
  1303.62        2500.00        3287.20     
  1302.58        2500.00        3288.20     
  1301.55        2500.00        3288.73     
  1300.51        2500.00        3288.98     
  1299.47        2500.00        3289.70     
  1298.44        2500.00        3289.87     
  1297.40        2500.00        2830.64     
  1296.36        2500.00        2823.75     
  1295.33        2500.00        2826.19     
  1294.29        2500.00        2828.55     
  1293.26        2500.00        2831.07     
  1292.22        2500.00        2856.65     
  1291.18        2500.00        2865.60     
  1290.15        2500.00        2866.27     
  1289.11        2500.00        2866.77     
  1288.07        2500.00        2867.20     
  1287.04        2500.00        2867.42     
  1286.00        2500.00        2867.58     
  1284.97        2500.00        2867.62     
  1283.93        2500.00        2867.52     
  1282.89        2500.00        2867.29     
  1281.86        2500.00        2867.12     
  1280.82        2500.00        2866.54     
  1279.78        2500.00        2865.72     
  1278.75        2500.00        2864.60     
  1277.71        2500.00        2860.50     
  1276.68        2500.00        2885.08     
  1275.64        2500.00        2857.48     
  1274.60        2500.00        2857.51     
  1273.57        2500.00        2871.81     
  1272.53        2500.00        2855.59     
  1271.50        2500.00        2854.93     
  1270.46        2500.00        2851.87     
  1269.42        2500.00        2857.27     
  1268.39        2500.00        2847.86     
  1267.35        2500.00        2816.81     
  1266.31        2500.00        2910.37     
  1265.28        2500.00        2852.69     
  1264.24        2500.00        2860.02     
  1263.21        2500.00        3085.90     
  1262.17        2500.00        2796.13     
  1261.13        2500.00        2854.32     
  1260.10        2500.00        2856.97     
  1259.06        2500.00        2841.49     
  1258.02        2500.00        2852.99     
  1256.99        2500.00        2859.92     
  1255.95        2500.00        2808.29     
  1254.92        2500.00        2904.56     
  1253.88        2500.00        2856.42     
  1252.84        2500.00        2857.61     
  1251.81        2500.00        2860.17     
  1250.77        2500.00        2860.69     
  1249.73        2500.00        3004.41     
  1248.70        2500.00        2859.58     
  1247.66        2500.00        2860.40     
  1246.63        2500.00        2556.78     
  1245.59        2500.00        2556.88     
  1244.55        2500.00        2844.04     
  1243.52        2500.00        2867.46     
  1242.48        2500.00        2542.33     
  1241.44        2500.00        2542.43     
  1240.41        2500.00        2872.90     
  1239.37        2500.00        2863.20     
  1238.34        2500.00        2841.62     
  1237.30        2500.00        2868.50     
  1236.26        2500.00        2974.21     
  1235.23        2500.00        2872.96     
  1234.19        2500.00        2870.59     
  1233.15        2500.00        3029.61     
  1232.12        2500.00        2839.73     
  1231.08        2500.00        2862.97     
  1230.05        2500.00        2915.96     
  1229.01        2500.00        2873.84     
  1227.97        2500.00        2860.07     
  1226.94        2500.00        2871.23     
  1225.90        2500.00        2665.93     
  1224.86        2500.00        2692.15     
  1223.83        2500.00        2692.20     
  1222.79        2500.00        2692.24     
  1221.76        2500.00        2692.25     
  1220.72        2500.00        2692.29     
  1219.68        2500.00        2692.42     
  1218.65        2500.00        2692.45     
  1217.61        2500.00        2692.50     
  1216.57        2500.00        2692.55     
  1215.54        2500.00        2692.60     
  1214.50        2500.00        2692.65     
  1213.47        2500.00        2692.70     
  1212.43        2500.00        2692.75     
  1211.39        2500.00        2692.80     
  1210.36        2500.00        2692.82     
  1209.32        2500.00        2692.87     
  1208.28        2500.00        2693.04     
  1207.25        2500.00        2692.95     
  1206.21        2500.00        2693.00     
  1205.18        2500.00        2693.04     
  1204.14        2500.00        2693.15     
  1203.10        2500.00        2693.24     
  1202.07        2500.00        2693.24     
  1201.03        2500.00        2693.31     
  1199.99        2500.00        2693.36     
  1198.96        2500.00        2693.41     
  1197.92        2500.00        2693.47     
  1196.89        2500.00        2693.50     
  1195.85        2500.00        2693.57     
  1194.81        2500.00        2693.65     
  1193.78        2500.00        2693.66     
  1192.74        2500.00        2693.75     
  1191.70        2500.00        2693.80     
  1190.67        2500.00        2693.83     
  1189.63        2500.00        2693.88     
  1188.60        2500.00        2693.92     
  1187.56        2500.00        2693.99     
  1186.52        2500.00        2694.04     
  1185.49        2500.00        2694.09     
  1184.45        2500.00        2694.14     
  1183.41        2500.00        2694.17     
  1182.38        2500.00        2694.25     
  1181.34        2500.00        2694.30     
  1180.31        2500.00        2694.35     
  1179.27        2500.00        2694.41     
  1178.23        2500.00        2694.46     
  1177.20        2500.00        2694.51     
  1176.16        2500.00        2694.57     
  1175.12        2500.00        2694.62     
  1174.09        2500.00        2694.68     
  1173.05        2500.00        2694.70     
  1172.02        2500.00        2694.77     
  1170.98        2500.00        2694.82     
  1169.94        2500.00        2694.88     
  1168.91        2500.00        2694.93     
  1167.87        2500.00        2694.98     
  1166.83        2500.00        2695.04     
  1165.80        2500.00        2695.10     
  1164.76        2500.00        2695.16     
  1163.73        2500.00        2695.22     
  1162.69        2500.00        2695.27     
  1161.65        2500.00        2695.33     
  1160.62        2500.00        2695.38     
  1159.58        2500.00        2695.44     
  1158.54        2500.00        2695.49     
  1157.51        2500.00        2695.55     
  1156.47        2500.00        2695.61     
  1155.44        2500.00        2695.66     
  1154.40        2500.00        2695.72     
  1153.36        2500.00        2695.77     
  1152.33        2500.00        2695.77     
  1151.29        2500.00        2695.87     
  1150.25        2500.00        2695.91     
  1149.22        2500.00        2695.87     
  1148.18        2500.00        2695.95     
  1147.15        2500.00        2695.90     
  1146.11        2500.00        2696.04     
  1145.07        2500.00        2696.10     
  1144.04        2500.00        2696.13     
  1143.00        2500.00        2696.18     
  1141.96        2500.00        2696.23     
  1140.93        2500.00        2696.28     
  1139.89        2500.00        2696.33     
  1138.86        2500.00        2696.38     
  1137.82        2500.00        2696.43     
  1136.78        2500.00        2696.48     
  1135.75        2500.00        2696.53     
  1134.71        2500.00        2696.58     
  1133.68        2500.00        2696.62     
  1132.64        2500.00        2696.67     
  1131.60        2500.00        2696.72     
  1130.57        2500.00        2696.77     
  1129.53        2500.00        2696.82     
  1128.49        2500.00        2696.87     
  1127.46        2500.00        2696.92     
  1126.42        2500.00        2696.97     
  1125.39        2500.00        2697.02     
  1124.35        2500.00        2697.07     
  1123.31        2500.00        2697.12     
  1122.28        2500.00        2697.17     
  1121.24        2500.00        2697.34     
  1120.20        2500.00        2697.27     
  1119.17        2500.00        2697.32     
  1118.13        2500.00        2697.37     
  1117.10        2500.00        2697.40     
  1116.06        2500.00        2697.46     
  1115.02        2500.00        2697.50     
  1113.99        2500.00        2697.56     
  1112.95        2500.00        2697.61     
  1111.91        2500.00        2697.66     
  1110.88        2500.00        2697.71     
  1109.84        2500.00        2697.76     
  1108.81        2500.00        2697.81     
  1107.77        2500.00        2697.86     
  1106.73        2500.00        2697.91     
  1105.70        2500.00        2697.96     
  1104.66        2500.00        2698.01     
  1103.62        2500.00        2698.05     
  1102.59        2500.00        2698.10     
  1101.55        2500.00        2698.15     
  1100.52        2500.00        2698.22     
  1099.48        2500.00        2698.27     
  1098.44        2500.00        2698.33     
  1097.41        2500.00        2698.34     
  1096.37        2500.00        2698.39     
  1095.33        2500.00        2698.44     
  1094.30        2500.00        2698.50     
  1093.26        2500.00        2698.58     
  1092.23        2500.00        2698.63     
  1091.19        2500.00        2698.68     
  1090.15        2500.00        2698.68     
  1089.12        2500.00        2698.76     
  1088.08        2500.00        2698.81     
  1087.04        2500.00        2698.88     
  1086.01        2500.00        2698.93     
  1084.97        2500.00        2698.93     
  1083.94        2500.00        2698.99     
  1082.90        2500.00        2699.04     
  1081.86        2500.00        2699.11     
  1080.83        2500.00        2699.13     
  1079.79        2500.00        2699.25     
  1078.75        2500.00        2699.30     
  1077.72        2500.00        2699.36     
  1076.68        2500.00        2699.41     
  1075.65        2500.00        2699.46     
  1074.61        2500.00        2699.51     
  1073.57        2500.00        2699.48     
  1072.54        2500.00        2699.53     
  1071.50        2500.00        2699.58     
  1070.46        2500.00        2699.63     
  1069.43        2500.00        2699.68     
  1068.39        2500.00        2699.73     
  1067.36        2500.00        2699.77     
  1066.32        2500.00        2699.82     
  1065.28        2500.00        2699.87     
  1064.25        2500.00        2699.92     
  1063.21        2500.00        2699.97     
  1062.17        2500.00        2700.01     
  1061.14        2500.00        2700.07     
  1060.10        2500.00        2700.12     
  1059.07        2500.00        2700.17     
  1058.03        2500.00        2700.21     
  1056.99        2500.00        2700.25     
  1055.96        2500.00        2700.32     
  1054.92        2500.00        2700.36     
  1053.88        2500.00        2700.42     
  1052.85        2500.00        2700.49     
  1051.81        2500.00        2700.46     
  1050.78        2500.00        2700.51     
  1049.74        2500.00        2700.61     
  1048.70        2500.00        2700.66     
  1047.67        2500.00        2700.70     
  1046.63        2500.00        2700.75     
  1045.59        2500.00        2700.79     
  1044.56        2500.00        2700.80     
  1043.52        2500.00        2700.88     
  1042.49        2500.00        2700.95     
  1041.45        2500.00        2700.99     
  1040.41        2500.00        2701.04     
  1039.38        2500.00        2701.04     
  1038.34        2500.00        2701.03     
  1037.30        2500.00        2701.19     
  1036.27        2500.00        2701.36     
  1035.23        2500.00        2701.19     
  1034.20        2500.00        2701.25     
  1033.16        2500.00        2701.40     
  1032.12        2500.00        2701.44     
  1031.09        2500.00        2701.49     
  1030.05        2500.00        2701.54     
  1029.01        2500.00        2701.59     
  1027.98        2500.00        2701.63     
  1026.94        2500.00        2701.68     
  1025.91        2500.00        2701.73     
  1024.87        2500.00        2701.80     
  1023.83        2500.00        2701.83     
  1022.80        2500.00        2701.88     
  1021.76        2500.00        2701.94     
  1020.72        2500.00        2702.01     
  1019.69        2500.00        2702.02     
  1018.65        2500.00        2702.07     
  1017.62        2500.00        2702.13     
  1016.58        2500.00        2702.16     
  1015.54        2500.00        2702.21     
  1014.51        2500.00        2702.26     
  1013.47        2500.00        2702.31     
  1012.43        2500.00        2702.35     
  1011.40        2500.00        2702.42     
  1010.36        2500.00        2702.47     
  1009.33        2500.00        2702.51     
  1008.29        2500.00        2702.57     
  1007.25        2500.00        2702.62     
  1006.22        2500.00        2702.64     
  1005.18        2500.00        2702.70     
  1004.14        2500.00        2702.73     
  1003.11        2500.00        2702.79     
  1002.07        2500.00        2702.83     
  1001.04        2500.00        2702.93     
  1000.00        2500.00        2702.95     
