|6.6.6
Archiving\03_Data\eqLP/QFM_m5/TAY13/TAY13_6.tab                           
           1
T(K)    
  0.000000000000000E+000
  0.000000000000000E+000
           0
           3
T(K)           P(bar)         rho,kg/m3     
  2000.00        500.000        7070.69     
  1996.79        500.000        7072.69     
  1993.59        500.000        7074.69     
  1990.38        500.000        7076.68     
  1987.18        500.000        7078.67     
  1983.97        500.000        7080.65     
  1980.77        500.000        7079.33     
  1977.56        500.000        7038.53     
  1974.36        500.000        6998.84     
  1971.15        500.000        6951.46     
  1967.95        500.000        6905.55     
  1964.74        500.000        6861.04     
  1961.54        500.000        6817.86     
  1958.33        500.000        6775.97     
  1955.13        500.000        6735.29     
  1951.92        500.000        6695.78     
  1948.72        500.000        6657.40     
  1945.51        500.000        6633.38     
  1942.31        500.000        6602.34     
  1939.10        500.000        6605.24     
  1935.90        500.000        6608.14     
  1932.69        500.000        6611.01     
  1929.49        500.000        6613.87     
  1926.28        500.000        6616.72     
  1923.08        500.000        6619.56     
  1919.87        500.000        6622.37     
  1916.67        500.000        6625.17     
  1913.46        500.000        6627.96     
  1910.26        500.000        6630.75     
  1907.05        500.000        6633.51     
  1903.85        500.000        6636.27     
  1900.64        500.000        6639.01     
  1897.44        500.000        6483.77     
  1894.23        500.000        6054.12     
  1891.03        500.000        5722.09     
  1887.82        500.000        5457.83     
  1884.62        500.000        5242.54     
  1881.41        500.000        5063.79     
  1878.21        500.000        4913.01     
  1875.00        500.000        4784.13     
  1871.79        500.000        4672.72     
  1868.59        500.000        4583.12     
  1865.38        500.000        4503.42     
  1862.18        500.000        4432.07     
  1858.97        500.000        4367.83     
  1855.77        500.000        4309.70     
  1852.56        500.000        4256.85     
  1849.36        500.000        4208.59     
  1846.15        500.000        4164.36     
  1842.95        500.000        4125.99     
  1839.74        500.000        4090.40     
  1836.54        500.000        4057.32     
  1833.33        500.000        4026.49     
  1830.13        500.000        3997.69     
  1826.92        500.000        3970.72     
  1823.72        500.000        3945.43     
  1820.51        500.000        3921.66     
  1817.31        500.000        3899.86     
  1814.10        500.000        3879.27     
  1810.90        500.000        3859.79     
  1807.69        500.000        3841.33     
  1804.49        500.000        3823.93     
  1801.28        500.000        3807.69     
  1798.08        500.000        3792.15     
  1794.87        500.000        3777.36     
  1791.67        500.000        3763.28     
  1788.46        500.000        3749.85     
  1785.26        500.000        3737.02     
  1782.05        500.000        3724.75     
  1778.85        500.000        3713.01     
  1775.64        500.000        3701.77     
  1772.44        500.000        3690.99     
  1769.23        500.000        3680.66     
  1766.03        500.000        3670.63     
  1762.82        500.000        3660.99     
  1759.62        500.000        3651.73     
  1756.41        500.000        3642.81     
  1753.21        500.000        3634.13     
  1750.00        500.000        3625.76     
  1746.79        500.000        3617.70     
  1743.59        500.000        3609.99     
  1740.38        500.000        3602.38     
  1737.18        500.000        3595.02     
  1733.97        500.000        3587.93     
  1730.77        500.000        3581.07     
  1727.56        500.000        3574.44     
  1724.36        500.000        3568.04     
  1721.15        500.000        3561.84     
  1717.95        500.000        3555.84     
  1714.74        500.000        3549.81     
  1711.54        500.000        3543.97     
  1708.33        500.000        3538.31     
  1705.13        500.000        3532.83     
  1701.92        500.000        3527.52     
  1698.72        500.000        3522.38     
  1695.51        500.000        3517.38     
  1692.31        500.000        3512.54     
  1689.10        500.000        3507.72     
  1685.90        500.000        3503.04     
  1682.69        500.000        3498.49     
  1679.49        500.000        3494.08     
  1676.28        500.000        3489.79     
  1673.08        500.000        3485.62     
  1669.87        500.000        3481.57     
  1666.67        500.000        3477.63     
  1663.46        500.000        3473.78     
  1660.26        500.000        3470.04     
  1657.05        500.000        3466.39     
  1653.85        500.000        3462.84     
  1650.64        500.000        3459.38     
  1647.44        500.000        3456.01     
  1644.23        500.000        3452.73     
  1641.03        500.000        3449.53     
  1637.82        500.000        3446.48     
  1634.62        500.000        3443.51     
  1631.41        500.000        3440.61     
  1628.21        500.000        3437.78     
  1625.00        500.000        3435.02     
  1621.79        500.000        3432.32     
  1618.59        500.000        3429.68     
  1615.38        500.000        3427.11     
  1612.18        500.000        3424.64     
  1608.97        500.000        3422.22     
  1605.77        500.000        3419.82     
  1602.56        500.000        3416.09     
  1599.36        500.000        3412.84     
  1596.15        500.000        3409.71     
  1592.95        500.000        3406.69     
  1589.74        500.000        3403.77     
  1586.54        500.000        3401.50     
  1583.33        500.000        3399.29     
  1580.13        500.000        3397.14     
  1576.92        500.000        3395.06     
  1573.72        500.000        3393.03     
  1570.51        500.000        3391.06     
  1567.31        500.000        3389.14     
  1564.10        500.000        3387.27     
  1560.90        500.000        3385.85     
  1557.69        500.000        3384.46     
  1554.49        500.000        3383.10     
  1551.28        500.000        3381.78     
  1548.08        500.000        3380.48     
  1544.87        500.000        3379.20     
  1541.67        500.000        3377.96     
  1538.46        500.000        3376.74     
  1535.26        500.000        3375.75     
  1532.05        500.000        3374.78     
  1528.85        500.000        3373.82     
  1525.64        500.000        3372.88     
  1522.44        500.000        3371.96     
  1519.23        500.000        3371.05     
  1516.03        500.000        3370.17     
  1512.82        500.000        3369.29     
  1509.62        500.000        3368.54     
  1506.41        500.000        3367.79     
  1503.21        500.000        3367.06     
  1500.00        500.000        3366.34     
  1496.79        500.000        3365.63     
  1493.59        500.000        3364.93     
  1490.38        500.000        3364.24     
  1487.18        500.000        3363.56     
  1483.97        500.000        3362.92     
  1480.77        500.000        3362.29     
  1477.56        500.000        3361.66     
  1474.36        500.000        3361.04     
  1471.15        500.000        3360.44     
  1467.95        500.000        3360.54     
  1464.74        500.000        3360.69     
  1461.54        500.000        3360.85     
  1458.33        500.000        3361.03     
  1455.13        500.000        3361.21     
  1451.92        500.000        3361.39     
  1448.72        500.000        3361.57     
  1445.51        500.000        3361.71     
  1442.31        500.000        3361.85     
  1439.10        500.000        3361.99     
  1435.90        500.000        3362.14     
  1432.69        500.000        3362.35     
  1429.49        500.000        3362.56     
  1426.28        500.000        3362.78     
  1423.08        500.000        3362.99     
  1419.87        500.000        3363.24     
  1416.67        500.000        3362.95     
  1413.46        500.000        3361.20     
  1410.26        500.000        3359.64     
  1407.05        500.000        3360.08     
  1403.85        500.000        3360.53     
  1400.64        500.000        3360.97     
  1397.44        500.000        3361.42     
  1394.23        500.000        3361.86     
  1391.03        500.000        3362.31     
  1387.82        500.000        3362.75     
  1384.62        500.000        3352.09     
  1381.41        500.000        3352.53     
  1378.21        500.000        3352.97     
  1375.00        500.000        3353.41     
  1371.79        500.000        3353.84     
  1368.59        500.000        3354.28     
  1365.38        500.000        3354.72     
  1362.18        500.000        3355.15     
  1358.97        500.000        3348.82     
  1355.77        500.000        3349.25     
  1352.56        500.000        3349.68     
  1349.36        500.000        3350.12     
  1346.15        500.000        3350.55     
  1342.95        500.000        3350.98     
  1339.74        500.000        3351.41     
  1336.54        500.000        3351.84     
  1333.33        500.000        3347.35     
  1330.13        500.000        3347.78     
  1326.92        500.000        3348.21     
  1323.72        500.000        3348.64     
  1320.51        500.000        3349.07     
  1317.31        500.000        3349.49     
  1314.10        500.000        3349.92     
  1310.90        500.000        3350.35     
  1307.69        500.000        3346.90     
  1304.49        500.000        3346.89     
  1301.28        500.000        3337.84     
  1298.08        500.000        3305.99     
  1294.87        500.000        3306.36     
  1291.67        500.000        3306.78     
  1288.46        500.000        3307.19     
  1285.26        500.000        3307.61     
  1282.05        500.000        3307.87     
  1278.85        500.000        3308.28     
  1275.64        500.000        3308.69     
  1272.44        500.000        3309.10     
  1269.23        500.000        3309.52     
  1266.03        500.000        3309.93     
  1262.82        500.000        3310.34     
  1259.62        500.000        3310.75     
  1256.41        500.000        3310.88     
  1253.21        500.000        3311.29     
  1250.00        500.000        3311.70     
  1246.79        500.000        3312.11     
  1243.59        500.000        3312.52     
  1240.38        500.000        3312.93     
  1237.18        500.000        3313.34     
  1233.97        500.000        3313.75     
  1230.77        500.000        3313.90     
  1227.56        500.000        3314.31     
  1224.36        500.000        3314.72     
  1221.15        500.000        3315.13     
  1217.95        500.000        3315.54     
  1214.74        500.000        3315.95     
  1211.54        500.000        3316.35     
  1208.33        500.000        3316.76     
  1205.13        500.000        3316.94     
  1201.92        500.000        3317.35     
  1198.72        500.000        3317.75     
  1195.51        500.000        3318.16     
  1192.31        500.000        3318.57     
  1189.10        500.000        3318.97     
  1185.90        500.000        3319.38     
  1182.69        500.000        3319.78     
  1179.49        500.000        3319.98     
  1176.28        500.000        3320.39     
  1173.08        500.000        3320.79     
  1169.87        500.000        3321.20     
  1166.67        500.000        3321.60     
  1163.46        500.000        3322.01     
  1160.26        500.000        3322.41     
  1157.05        500.000        3322.81     
  1153.85        500.000        3323.04     
  1150.64        500.000        3323.44     
  1147.44        500.000        3323.84     
  1144.23        500.000        3324.25     
  1141.03        500.000        3324.65     
  1137.82        500.000        3325.05     
  1134.62        500.000        3325.45     
  1131.41        500.000        3325.85     
  1128.21        500.000        3326.10     
  1125.00        500.000        3326.50     
  1121.79        500.000        3326.90     
  1118.59        500.000        3327.30     
  1115.38        500.000        3327.70     
  1112.18        500.000        3328.10     
  1108.97        500.000        3328.50     
  1105.77        500.000        3328.90     
  1102.56        500.000        3329.17     
  1099.36        500.000        3329.56     
  1096.15        500.000        3329.96     
  1092.95        500.000        3330.36     
  1089.74        500.000        3330.76     
  1086.54        500.000        3331.16     
  1083.33        500.000        3331.55     
  1080.13        500.000        3331.95     
  1076.92        500.000        3332.24     
  1073.72        500.000        3332.64     
  1070.51        500.000        3333.04     
  1067.31        500.000        3333.43     
  1064.10        500.000        3333.83     
  1060.90        500.000        3334.23     
  1057.69        500.000        3334.62     
  1054.49        500.000        3335.02     
  1051.28        500.000        3335.34     
  1048.08        500.000        3335.73     
  1044.87        500.000        3336.11     
  1041.67        500.000        3336.49     
  1038.46        500.000        3336.88     
  1035.26        500.000        3337.27     
  1032.05        500.000        3337.66     
  1028.85        500.000        3338.06     
  1025.64        500.000        3338.47     
  1022.44        500.000        3338.86     
  1019.23        500.000        3339.24     
  1016.03        500.000        3339.64     
  1012.82        500.000        3340.02     
  1009.62        500.000        3340.42     
  1006.41        500.000        3340.81     
  1003.21        500.000        3341.21     
  1000.00        500.000        3341.58     
