|6.6.6
Archiving\03_Data\eq/QFM_m0.5/TAY13/TAY13_6.tab                           
           1
T(K)    
  0.000000000000000E+000
  0.000000000000000E+000
           0
           3
T(K)           P(bar)         rho,kg/m3     
  2000.00        2500.00        4224.35     
  1996.79        2500.00        4203.09     
  1993.59        2500.00        4182.70     
  1990.38        2500.00        4163.13     
  1987.18        2500.00        4144.32     
  1983.97        2500.00        4126.24     
  1980.77        2500.00        4108.85     
  1977.56        2500.00        4092.11     
  1974.36        2500.00        4075.98     
  1971.15        2500.00        4041.86     
  1967.95        2500.00        4010.26     
  1964.74        2500.00        3980.90     
  1961.54        2500.00        3953.55     
  1958.33        2500.00        3928.03     
  1955.13        2500.00        3904.15     
  1951.92        2500.00        3881.77     
  1948.72        2500.00        3860.76     
  1945.51        2500.00        3791.93     
  1942.31        2500.00        3735.57     
  1939.10        2500.00        3688.60     
  1935.90        2500.00        3648.85     
  1932.69        2500.00        3614.81     
  1929.49        2500.00        3585.33     
  1926.28        2500.00        3559.56     
  1923.08        2500.00        3536.86     
  1919.87        2500.00        3456.30     
  1916.67        2500.00        3405.10     
  1913.46        2500.00        3369.74     
  1910.26        2500.00        3343.92     
  1907.05        2500.00        3324.26     
  1903.85        2500.00        3308.84     
  1900.64        2500.00        3296.43     
  1897.44        2500.00        3286.27     
  1894.23        2500.00        3274.70     
  1891.03        2500.00        3265.73     
  1887.82        2500.00        3258.67     
  1884.62        2500.00        3254.55     
  1881.41        2500.00        3251.90     
  1878.21        2500.00        3224.90     
  1875.00        2500.00        3221.92     
  1871.79        2500.00        3223.28     
  1868.59        2500.00        3225.17     
  1865.38        2500.00        3226.91     
  1862.18        2500.00        3228.53     
  1858.97        2500.00        3230.05     
  1855.77        2500.00        3231.47     
  1852.56        2500.00        3232.82     
  1849.36        2500.00        3234.09     
  1846.15        2500.00        3235.30     
  1842.95        2500.00        3237.44     
  1839.74        2500.00        3239.46     
  1836.54        2500.00        3241.38     
  1833.33        2500.00        3243.21     
  1830.13        2500.00        3244.95     
  1826.92        2500.00        3246.62     
  1823.72        2500.00        3248.21     
  1820.51        2500.00        3249.75     
  1817.31        2500.00        3251.92     
  1814.10        2500.00        3254.01     
  1810.90        2500.00        3256.02     
  1807.69        2500.00        3257.95     
  1804.49        2500.00        3259.81     
  1801.28        2500.00        3261.61     
  1798.08        2500.00        3263.35     
  1794.87        2500.00        3265.03     
  1791.67        2500.00        3267.15     
  1788.46        2500.00        3269.20     
  1785.26        2500.00        3271.19     
  1782.05        2500.00        3273.12     
  1778.85        2500.00        3274.99     
  1775.64        2500.00        3276.81     
  1772.44        2500.00        3278.58     
  1769.23        2500.00        3280.30     
  1766.03        2500.00        3282.28     
  1762.82        2500.00        3284.21     
  1759.62        2500.00        3286.09     
  1756.41        2500.00        3287.93     
  1753.21        2500.00        3289.72     
  1750.00        2500.00        3291.47     
  1746.79        2500.00        3293.18     
  1743.59        2500.00        3294.85     
  1740.38        2500.00        3296.68     
  1737.18        2500.00        3298.47     
  1733.97        2500.00        3300.22     
  1730.77        2500.00        3301.94     
  1727.56        2500.00        3303.63     
  1724.36        2500.00        3305.28     
  1721.15        2500.00        3306.90     
  1717.95        2500.00        3308.49     
  1714.74        2500.00        3310.14     
  1711.54        2500.00        3311.76     
  1708.33        2500.00        3313.36     
  1705.13        2500.00        3314.92     
  1701.92        2500.00        3316.47     
  1698.72        2500.00        3317.99     
  1695.51        2500.00        3319.48     
  1692.31        2500.00        3320.95     
  1689.10        2500.00        3322.42     
  1685.90        2500.00        3323.87     
  1682.69        2500.00        3325.30     
  1679.49        2500.00        3326.71     
  1676.28        2500.00        3328.10     
  1673.08        2500.00        3329.48     
  1669.87        2500.00        3330.83     
  1666.67        2500.00        3332.17     
  1663.46        2500.00        3333.47     
  1660.26        2500.00        3334.75     
  1657.05        2500.00        3336.01     
  1653.85        2500.00        3337.27     
  1650.64        2500.00        3338.51     
  1647.44        2500.00        3339.73     
  1644.23        2500.00        3340.95     
  1641.03        2500.00        3342.15     
  1637.82        2500.00        3343.31     
  1634.62        2500.00        3344.45     
  1631.41        2500.00        3345.59     
  1628.21        2500.00        3346.71     
  1625.00        2500.00        3347.80     
  1621.79        2500.00        3348.88     
  1618.59        2500.00        3349.66     
  1615.38        2500.00        3349.15     
  1612.18        2500.00        3348.89     
  1608.97        2500.00        3348.64     
  1605.77        2500.00        3348.41     
  1602.56        2500.00        3348.20     
  1599.36        2500.00        3348.00     
  1596.15        2500.00        3347.83     
  1592.95        2500.00        3347.66     
  1589.74        2500.00        3347.52     
  1586.54        2500.00        3347.59     
  1583.33        2500.00        3347.67     
  1580.13        2500.00        3347.76     
  1576.92        2500.00        3347.85     
  1573.72        2500.00        3347.96     
  1570.51        2500.00        3348.06     
  1567.31        2500.00        3348.18     
  1564.10        2500.00        3348.30     
  1560.90        2500.00        3348.52     
  1557.69        2500.00        3348.74     
  1554.49        2500.00        3348.96     
  1551.28        2500.00        3349.19     
  1548.08        2500.00        3349.42     
  1544.87        2500.00        3349.66     
  1541.67        2500.00        3349.89     
  1538.46        2500.00        3350.13     
  1535.26        2500.00        3350.42     
  1532.05        2500.00        3350.70     
  1528.85        2500.00        3350.99     
  1525.64        2500.00        3351.28     
  1522.44        2500.00        3351.57     
  1519.23        2500.00        3351.86     
  1516.03        2500.00        3352.16     
  1512.82        2500.00        3352.45     
  1509.62        2500.00        3352.76     
  1506.41        2500.00        3353.06     
  1503.21        2500.00        3353.37     
  1500.00        2500.00        3353.68     
  1496.79        2500.00        3353.99     
  1493.59        2500.00        3354.30     
  1490.38        2500.00        3354.62     
  1487.18        2500.00        3354.93     
  1483.97        2500.00        3355.24     
  1480.77        2500.00        3355.55     
  1477.56        2500.00        3355.87     
  1474.36        2500.00        3356.18     
  1471.15        2500.00        3356.51     
  1467.95        2500.00        3356.84     
  1464.74        2500.00        3357.19     
  1461.54        2500.00        3357.53     
  1458.33        2500.00        3357.92     
  1455.13        2500.00        3358.31     
  1451.92        2500.00        3358.70     
  1448.72        2500.00        3359.09     
  1445.51        2500.00        3359.47     
  1442.31        2500.00        3359.86     
  1439.10        2500.00        3360.25     
  1435.90        2500.00        3360.63     
  1432.69        2500.00        3361.04     
  1429.49        2500.00        3361.44     
  1426.28        2500.00        3361.84     
  1423.08        2500.00        3362.24     
  1419.87        2500.00        3362.67     
  1416.67        2500.00        3363.07     
  1413.46        2500.00        3363.51     
  1410.26        2500.00        3363.83     
  1407.05        2500.00        3364.27     
  1403.85        2500.00        3364.71     
  1400.64        2500.00        3365.15     
  1397.44        2500.00        3365.33     
  1394.23        2500.00        3365.77     
  1391.03        2500.00        3366.08     
  1387.82        2500.00        3366.45     
  1384.62        2500.00        3366.31     
  1381.41        2500.00        3366.75     
  1378.21        2500.00        3367.19     
  1375.00        2500.00        3367.63     
  1371.79        2500.00        3368.06     
  1368.59        2500.00        3368.50     
  1365.38        2500.00        3368.94     
  1362.18        2500.00        3369.37     
  1358.97        2500.00        3363.73     
  1355.77        2500.00        3364.16     
  1352.56        2500.00        3364.59     
  1349.36        2500.00        3365.03     
  1346.15        2500.00        3365.46     
  1342.95        2500.00        3365.89     
  1339.74        2500.00        3366.32     
  1336.54        2500.00        3366.75     
  1333.33        2500.00        3362.39     
  1330.13        2500.00        3362.82     
  1326.92        2500.00        3363.25     
  1323.72        2500.00        3363.67     
  1320.51        2500.00        3362.04     
  1317.31        2500.00        3361.98     
  1314.10        2500.00        3333.27     
  1310.90        2500.00        3328.34     
  1307.69        2500.00        3328.65     
  1304.49        2500.00        3329.07     
  1301.28        2500.00        3329.49     
  1298.08        2500.00        3329.90     
  1294.87        2500.00        3330.32     
  1291.67        2500.00        3330.73     
  1288.46        2500.00        3331.15     
  1285.26        2500.00        3331.57     
  1282.05        2500.00        3331.21     
  1278.85        2500.00        3331.62     
  1275.64        2500.00        3332.04     
  1272.44        2500.00        3332.45     
  1269.23        2500.00        3332.86     
  1266.03        2500.00        3333.28     
  1262.82        2500.00        3333.69     
  1259.62        2500.00        3334.10     
  1256.41        2500.00        3333.84     
  1253.21        2500.00        3334.25     
  1250.00        2500.00        3334.67     
  1246.79        2500.00        3335.08     
  1243.59        2500.00        3335.49     
  1240.38        2500.00        3335.90     
  1237.18        2500.00        3336.31     
  1233.97        2500.00        3336.72     
  1230.77        2500.00        3336.55     
  1227.56        2500.00        3336.96     
  1224.36        2500.00        3337.37     
  1221.15        2500.00        3337.78     
  1217.95        2500.00        3338.19     
  1214.74        2500.00        3338.59     
  1211.54        2500.00        3339.00     
  1208.33        2500.00        3339.41     
  1205.13        2500.00        3339.32     
  1201.92        2500.00        3339.73     
  1198.72        2500.00        3340.14     
  1195.51        2500.00        3340.55     
  1192.31        2500.00        3340.95     
  1189.10        2500.00        3341.36     
  1185.90        2500.00        3341.77     
  1182.69        2500.00        3342.18     
  1179.49        2500.00        3342.17     
  1176.28        2500.00        3342.57     
  1173.08        2500.00        3342.98     
  1169.87        2500.00        3343.39     
  1166.67        2500.00        3343.79     
  1163.46        2500.00        3344.20     
  1160.26        2500.00        3344.60     
  1157.05        2500.00        3345.01     
  1153.85        2500.00        3345.08     
  1150.64        2500.00        3345.48     
  1147.44        2500.00        3345.89     
  1144.23        2500.00        3346.29     
  1141.03        2500.00        3346.69     
  1137.82        2500.00        3347.10     
  1134.62        2500.00        3347.50     
  1131.41        2500.00        3347.90     
  1128.21        2500.00        3348.07     
  1125.00        2500.00        3348.47     
  1121.79        2500.00        3348.87     
  1118.59        2500.00        3349.27     
  1115.38        2500.00        3349.67     
  1112.18        2500.00        3350.07     
  1108.97        2500.00        3350.47     
  1105.77        2500.00        3350.87     
  1102.56        2500.00        3351.13     
  1099.36        2500.00        3351.53     
  1096.15        2500.00        3351.93     
  1092.95        2500.00        3352.33     
  1089.74        2500.00        3352.73     
  1086.54        2500.00        3353.13     
  1083.33        2500.00        3353.53     
  1080.13        2500.00        3353.93     
  1076.92        2500.00        3354.28     
  1073.72        2500.00        3354.68     
  1070.51        2500.00        3355.07     
  1067.31        2500.00        3355.47     
  1064.10        2500.00        3355.87     
  1060.90        2500.00        3356.27     
  1057.69        2500.00        3356.66     
  1054.49        2500.00        3357.06     
  1051.28        2500.00        3357.51     
  1048.08        2500.00        3357.93     
  1044.87        2500.00        3358.36     
  1041.67        2500.00        3358.76     
  1038.46        2500.00        3359.26     
  1035.26        2500.00        3359.68     
  1032.05        2500.00        3360.09     
  1028.85        2500.00        3360.49     
  1025.64        2500.00        3360.91     
  1022.44        2500.00        3361.31     
  1019.23        2500.00        3361.71     
  1016.03        2500.00        3362.11     
  1012.82        2500.00        3362.50     
  1009.62        2500.00        3362.90     
  1006.41        2500.00        3363.30     
  1003.21        2500.00        3363.69     
  1000.00        2500.00        3364.24     
