|6.6.6
Archiving\03_Data\eqLP/QFM_m5/Y98/Y98_3.tab                               
           1
T(K)    
  0.000000000000000E+000
  0.000000000000000E+000
           0
          12
T(K)           P(bar)         melt(TH)       pxmn           iron           Ni             Sp(TH)         O(HP)          Opx(TH)        Cpx(TH)        Cpx(TH)        an            
  2000.00        500.000        98.1362       0.780697        1.07468       0.840381E-002            NaN            NaN            NaN            NaN            NaN            NaN
  1996.79        500.000        98.1252       0.780843        1.08551       0.840460E-002            NaN            NaN            NaN            NaN            NaN            NaN
  1993.59        500.000        98.1143       0.780988        1.09634       0.840539E-002            NaN            NaN            NaN            NaN            NaN            NaN
  1990.38        500.000        98.1033       0.781134        1.10717       0.840618E-002            NaN            NaN            NaN            NaN            NaN            NaN
  1987.18        500.000        98.0923       0.781280        1.11801       0.840697E-002            NaN            NaN            NaN            NaN            NaN            NaN
  1983.97        500.000        98.0813       0.781426        1.12884       0.840777E-002            NaN            NaN            NaN            NaN            NaN            NaN
  1980.77        500.000        98.0703       0.781571        1.13968       0.840856E-002            NaN            NaN            NaN            NaN            NaN            NaN
  1977.56        500.000        98.0593       0.781717        1.15053       0.840935E-002            NaN            NaN            NaN            NaN            NaN            NaN
  1974.36        500.000        98.0484       0.781862        1.16138       0.841015E-002            NaN            NaN            NaN            NaN            NaN            NaN
  1971.15        500.000        98.0378       0.782005        1.17180       0.841091E-002            NaN            NaN            NaN            NaN            NaN            NaN
  1967.95        500.000        98.0272       0.782147        1.18223       0.841168E-002            NaN            NaN            NaN            NaN            NaN            NaN
  1964.74        500.000        98.0166       0.782290        1.19266       0.841244E-002            NaN            NaN            NaN            NaN            NaN            NaN
  1961.54        500.000        98.0061       0.782432        1.20309       0.841321E-002            NaN            NaN            NaN            NaN            NaN            NaN
  1958.33        500.000        97.9955       0.782574        1.21353       0.841397E-002            NaN            NaN            NaN            NaN            NaN            NaN
  1955.13        500.000        97.9849       0.782717        1.22397       0.841474E-002            NaN            NaN            NaN            NaN            NaN            NaN
  1951.92        500.000        97.9743       0.782859        1.23441       0.841551E-002            NaN            NaN            NaN            NaN            NaN            NaN
  1948.72        500.000        97.9637       0.783001        1.24486       0.841627E-002            NaN            NaN            NaN            NaN            NaN            NaN
  1945.51        500.000        97.9535       0.783141        1.25490       0.841701E-002            NaN            NaN            NaN            NaN            NaN            NaN
  1942.31        500.000        97.9434       0.783280        1.26494       0.841775E-002            NaN            NaN            NaN            NaN            NaN            NaN
  1939.10        500.000        97.9332       0.783419        1.27499       0.841849E-002            NaN            NaN            NaN            NaN            NaN            NaN
  1935.90        500.000        97.9230       0.783558        1.28504       0.841923E-002            NaN            NaN            NaN            NaN            NaN            NaN
  1932.69        500.000        97.9128       0.783698        1.29509       0.841997E-002            NaN            NaN            NaN            NaN            NaN            NaN
  1929.49        500.000        97.9026       0.783837        1.30515       0.842071E-002            NaN            NaN            NaN            NaN            NaN            NaN
  1926.28        500.000        97.8924       0.783976        1.31521       0.842145E-002            NaN            NaN            NaN            NaN            NaN            NaN
  1923.08        500.000        97.8822       0.784115        1.32527       0.842220E-002            NaN            NaN            NaN            NaN            NaN            NaN
  1919.87        500.000        97.8724       0.784251        1.33493       0.842291E-002            NaN            NaN            NaN            NaN            NaN            NaN
  1916.67        500.000        97.8626       0.784387        1.34459       0.842362E-002            NaN            NaN            NaN            NaN            NaN            NaN
  1913.46        500.000        97.8528       0.784524        1.35426       0.842434E-002            NaN            NaN            NaN            NaN            NaN            NaN
  1910.26        500.000        97.8430       0.784660        1.36393       0.842505E-002            NaN            NaN            NaN            NaN            NaN            NaN
  1907.05        500.000        97.8332       0.784796        1.37360       0.842577E-002            NaN            NaN            NaN            NaN            NaN            NaN
  1903.85        500.000        97.8234       0.784932        1.38327       0.842649E-002            NaN            NaN            NaN            NaN            NaN            NaN
  1900.64        500.000        97.8136       0.785068        1.39295       0.842721E-002            NaN            NaN            NaN            NaN            NaN            NaN
  1897.44        500.000        97.8037       0.785204        1.40263       0.842792E-002            NaN            NaN            NaN            NaN            NaN            NaN
  1894.23        500.000        97.7943       0.785337        1.41191       0.842861E-002            NaN            NaN            NaN            NaN            NaN            NaN
  1891.03        500.000        97.7849       0.785470        1.42120       0.842930E-002            NaN            NaN            NaN            NaN            NaN            NaN
  1887.82        500.000        97.7755       0.785604        1.43049       0.843000E-002            NaN            NaN            NaN            NaN            NaN            NaN
  1884.62        500.000        97.7660       0.785737        1.43979       0.843069E-002            NaN            NaN            NaN            NaN            NaN            NaN
  1881.41        500.000        97.7566       0.785870        1.44908       0.843138E-002            NaN            NaN            NaN            NaN            NaN            NaN
  1878.21        500.000        97.7472       0.786003        1.45838       0.843207E-002            NaN            NaN            NaN            NaN            NaN            NaN
  1875.00        500.000        97.7378       0.786136        1.46768       0.843277E-002            NaN            NaN            NaN            NaN            NaN            NaN
  1871.79        500.000        97.7283       0.786269        1.47698       0.843346E-002            NaN            NaN            NaN            NaN            NaN            NaN
  1868.59        500.000        97.7193       0.786399        1.48590       0.843413E-002            NaN            NaN            NaN            NaN            NaN            NaN
  1865.38        500.000        97.7102       0.786530        1.49482       0.843480E-002            NaN            NaN            NaN            NaN            NaN            NaN
  1862.18        500.000        97.7012       0.786660        1.50374       0.843547E-002            NaN            NaN            NaN            NaN            NaN            NaN
  1858.97        500.000        97.6921       0.786790        1.51266       0.843613E-002            NaN            NaN            NaN            NaN            NaN            NaN
  1855.77        500.000        97.6831       0.786920        1.52159       0.843680E-002            NaN            NaN            NaN            NaN            NaN            NaN
  1852.56        500.000        97.6740       0.787050        1.53052       0.843747E-002            NaN            NaN            NaN            NaN            NaN            NaN
  1849.36        500.000        97.6649       0.787180        1.53945       0.843815E-002            NaN            NaN            NaN            NaN            NaN            NaN
  1846.15        500.000        97.6559       0.787311        1.54838       0.843882E-002            NaN            NaN            NaN            NaN            NaN            NaN
  1842.95        500.000        97.6472       0.787438        1.55693       0.843946E-002            NaN            NaN            NaN            NaN            NaN            NaN
  1839.74        500.000        97.6385       0.787566        1.56549       0.844011E-002            NaN            NaN            NaN            NaN            NaN            NaN
  1836.54        500.000        97.6298       0.787693        1.57404       0.844075E-002            NaN            NaN            NaN            NaN            NaN            NaN
  1833.33        500.000        97.6211       0.787820        1.58260       0.844140E-002            NaN            NaN            NaN            NaN            NaN            NaN
  1830.13        500.000        97.6124       0.787948        1.59116       0.844205E-002            NaN            NaN            NaN            NaN            NaN            NaN
  1826.92        500.000        97.6038       0.788075        1.59972       0.844270E-002            NaN            NaN            NaN            NaN            NaN            NaN
  1823.72        500.000        97.5951       0.788202        1.60829       0.844335E-002            NaN            NaN            NaN            NaN            NaN            NaN
  1820.51        500.000        97.5864       0.788330        1.61685       0.844400E-002            NaN            NaN            NaN            NaN            NaN            NaN
  1817.31        500.000        97.5781       0.788454        1.62505       0.844462E-002            NaN            NaN            NaN            NaN            NaN            NaN
  1814.10        500.000        97.5697       0.788579        1.63324       0.844524E-002            NaN            NaN            NaN            NaN            NaN            NaN
  1810.90        500.000        97.5614       0.788704        1.64144       0.844587E-002            NaN            NaN            NaN            NaN            NaN            NaN
  1807.69        500.000        97.5531       0.788828        1.64964       0.844649E-002            NaN            NaN            NaN            NaN            NaN            NaN
  1804.49        500.000        97.5448       0.788953        1.65784       0.844712E-002            NaN            NaN            NaN            NaN            NaN            NaN
  1801.28        500.000        97.5364       0.789078        1.66604       0.844775E-002            NaN            NaN            NaN            NaN            NaN            NaN
  1798.08        500.000        97.5281       0.789202        1.67424       0.844837E-002            NaN            NaN            NaN            NaN            NaN            NaN
  1794.87        500.000        97.5198       0.789327        1.68245       0.844900E-002            NaN            NaN            NaN            NaN            NaN            NaN
  1791.67        500.000        97.5118       0.789449        1.69029       0.844961E-002            NaN            NaN            NaN            NaN            NaN            NaN
  1788.46        500.000        97.5039       0.789571        1.69813       0.845021E-002            NaN            NaN            NaN            NaN            NaN            NaN
  1785.26        500.000        97.4959       0.789693        1.70597       0.845081E-002            NaN            NaN            NaN            NaN            NaN            NaN
  1782.05        500.000        97.4879       0.789815        1.71381       0.845142E-002            NaN            NaN            NaN            NaN            NaN            NaN
  1778.85        500.000        97.4800       0.789937        1.72166       0.845202E-002            NaN            NaN            NaN            NaN            NaN            NaN
  1775.64        500.000        97.4720       0.790058        1.72950       0.845263E-002            NaN            NaN            NaN            NaN            NaN            NaN
  1772.44        500.000        97.4640       0.790180        1.73735       0.845324E-002            NaN            NaN            NaN            NaN            NaN            NaN
  1769.23        500.000        97.4560       0.790302        1.74520       0.845384E-002            NaN            NaN            NaN            NaN            NaN            NaN
  1766.03        500.000        97.4484       0.790422        1.75269       0.845443E-002            NaN            NaN            NaN            NaN            NaN            NaN
  1762.82        500.000        97.4408       0.790541        1.76018       0.845501E-002            NaN            NaN            NaN            NaN            NaN            NaN
  1759.62        500.000        97.4332       0.790660        1.76767       0.845559E-002            NaN            NaN            NaN            NaN            NaN            NaN
  1756.41        500.000        97.4256       0.790780        1.77516       0.845618E-002            NaN            NaN            NaN            NaN            NaN            NaN
  1753.21        500.000        97.4180       0.790899        1.78265       0.845676E-002            NaN            NaN            NaN            NaN            NaN            NaN
  1750.00        500.000        97.4104       0.791018        1.79015       0.845735E-002            NaN            NaN            NaN            NaN            NaN            NaN
  1746.79        500.000        97.4028       0.791138        1.79764       0.845794E-002            NaN            NaN            NaN            NaN            NaN            NaN
  1743.59        500.000        97.3951       0.791257        1.80514       0.845853E-002            NaN            NaN            NaN            NaN            NaN            NaN
  1740.38        500.000        97.3879       0.791374        1.81228       0.845909E-002            NaN            NaN            NaN            NaN            NaN            NaN
  1737.18        500.000        97.3806       0.791491        1.81942       0.845965E-002            NaN            NaN            NaN            NaN            NaN            NaN
  1733.97        500.000        97.3734       0.791608        1.82656       0.846022E-002            NaN            NaN            NaN            NaN            NaN            NaN
  1730.77        500.000        97.3661       0.791724        1.83370       0.846078E-002            NaN            NaN            NaN            NaN            NaN            NaN
  1727.56        500.000        97.3589       0.791841        1.84085       0.846135E-002            NaN            NaN            NaN            NaN            NaN            NaN
  1724.36        500.000        97.3516       0.791958        1.84799       0.846192E-002            NaN            NaN            NaN            NaN            NaN            NaN
  1721.15        500.000        97.3443       0.792075        1.85514       0.846248E-002            NaN            NaN            NaN            NaN            NaN            NaN
  1717.95        500.000        97.3371       0.792191        1.86229       0.846305E-002            NaN            NaN            NaN            NaN            NaN            NaN
  1714.74        500.000        97.3302       0.792306        1.86908       0.846359E-002            NaN            NaN            NaN            NaN            NaN            NaN
  1711.54        500.000        97.3232       0.792420        1.87587       0.846414E-002            NaN            NaN            NaN            NaN            NaN            NaN
  1708.33        500.000        97.3163       0.792535        1.88267       0.846468E-002            NaN            NaN            NaN            NaN            NaN            NaN
  1705.13        500.000        97.3094       0.792649        1.88946       0.846523E-002            NaN            NaN            NaN            NaN            NaN            NaN
  1701.92        500.000        97.3025       0.792763        1.89626       0.846578E-002            NaN            NaN            NaN            NaN            NaN            NaN
  1698.72        500.000        97.2956       0.792877        1.90305       0.846633E-002            NaN            NaN            NaN            NaN            NaN            NaN
  1695.51        500.000        97.2887       0.792992        1.90985       0.846687E-002            NaN            NaN            NaN            NaN            NaN            NaN
  1692.31        500.000        97.2818       0.793106        1.91665       0.846742E-002            NaN            NaN            NaN            NaN            NaN            NaN
  1689.10        500.000        97.2751       0.793218        1.92319       0.846795E-002            NaN            NaN            NaN            NaN            NaN            NaN
  1685.90        500.000        97.2685       0.793331        1.92973       0.846849E-002            NaN            NaN            NaN            NaN            NaN            NaN
  1682.69        500.000        97.2618       0.793443        1.93627       0.846902E-002            NaN            NaN            NaN            NaN            NaN            NaN
  1679.49        500.000        97.2552       0.793556        1.94281       0.846955E-002            NaN            NaN            NaN            NaN            NaN            NaN
  1676.28        500.000        97.2486       0.793668        1.94923       0.847008E-002            NaN            NaN            NaN            NaN            NaN            NaN
  1673.08        500.000        97.2421       0.793779        1.95564       0.847061E-002            NaN            NaN            NaN            NaN            NaN            NaN
  1669.87        500.000        97.2357       0.793890        1.96197       0.847113E-002            NaN            NaN            NaN            NaN            NaN            NaN
  1666.67        500.000        97.2165       0.794030        1.96972       0.847196E-002  0.113289E-001            NaN            NaN            NaN            NaN            NaN
  1663.46        500.000        97.2045       0.794144        1.97496       0.847251E-002  0.179524E-001            NaN            NaN            NaN            NaN            NaN
  1660.26        500.000        97.1925       0.794258        1.98020       0.847307E-002  0.245779E-001            NaN            NaN            NaN            NaN            NaN
  1657.05        500.000        97.1805       0.794372        1.98544       0.847363E-002  0.312055E-001            NaN            NaN            NaN            NaN            NaN
  1653.85        500.000        97.1685       0.794486        1.99068       0.847418E-002  0.378351E-001            NaN            NaN            NaN            NaN            NaN
