|6.6.6
Archiving\03_Data\eqLP/QFM_m5/Y98/Y98_1.tab                               
           1
T(K)    
  0.000000000000000E+000
  0.000000000000000E+000
           0
          12
T(K)           P(bar)         melt(TH)       pxmn           iron           Ni             Sp(TH)         O(HP)          Opx(TH)        Cpx(TH)        Cpx(TH)        an            
  2000.00        500.000        96.2664       0.971805        2.73794       0.238528E-001            NaN            NaN            NaN            NaN            NaN            NaN
  1996.79        500.000        96.2389       0.971881        2.76538       0.238546E-001            NaN            NaN            NaN            NaN            NaN            NaN
  1993.59        500.000        96.2114       0.971957        2.79283       0.238565E-001            NaN            NaN            NaN            NaN            NaN            NaN
  1990.38        500.000        96.1838       0.972033        2.82029       0.238584E-001            NaN            NaN            NaN            NaN            NaN            NaN
  1987.18        500.000        96.1563       0.972109        2.84774       0.238602E-001            NaN            NaN            NaN            NaN            NaN            NaN
  1983.97        500.000        96.1287       0.972185        2.87521       0.238621E-001            NaN            NaN            NaN            NaN            NaN            NaN
  1980.77        500.000        96.1012       0.972261        2.90267       0.238640E-001            NaN            NaN            NaN            NaN            NaN            NaN
  1977.56        500.000        96.0737       0.972337        2.93014       0.238658E-001            NaN            NaN            NaN            NaN            NaN            NaN
  1974.36        500.000        96.0461       0.972413        2.95762       0.238677E-001            NaN            NaN            NaN            NaN            NaN            NaN
  1971.15        500.000        96.0196       0.972486        2.98402       0.238695E-001            NaN            NaN            NaN            NaN            NaN            NaN
  1967.95        500.000        95.9931       0.972559        3.01043       0.238713E-001            NaN            NaN            NaN            NaN            NaN            NaN
  1964.74        500.000        95.9667       0.972632        3.03684       0.238731E-001            NaN            NaN            NaN            NaN            NaN            NaN
  1961.54        500.000        95.9402       0.972705        3.06326       0.238749E-001            NaN            NaN            NaN            NaN            NaN            NaN
  1958.33        500.000        95.9137       0.972779        3.08968       0.238767E-001            NaN            NaN            NaN            NaN            NaN            NaN
  1955.13        500.000        95.8872       0.972852        3.11610       0.238785E-001            NaN            NaN            NaN            NaN            NaN            NaN
  1951.92        500.000        95.8607       0.972925        3.14253       0.238803E-001            NaN            NaN            NaN            NaN            NaN            NaN
  1948.72        500.000        95.8342       0.972998        3.16896       0.238821E-001            NaN            NaN            NaN            NaN            NaN            NaN
  1945.51        500.000        95.8087       0.973068        3.19437       0.238838E-001            NaN            NaN            NaN            NaN            NaN            NaN
  1942.31        500.000        95.7832       0.973139        3.21978       0.238855E-001            NaN            NaN            NaN            NaN            NaN            NaN
  1939.10        500.000        95.7577       0.973209        3.24519       0.238872E-001            NaN            NaN            NaN            NaN            NaN            NaN
  1935.90        500.000        95.7322       0.973279        3.27061       0.238890E-001            NaN            NaN            NaN            NaN            NaN            NaN
  1932.69        500.000        95.7067       0.973350        3.29604       0.238907E-001            NaN            NaN            NaN            NaN            NaN            NaN
  1929.49        500.000        95.6812       0.973420        3.32146       0.238924E-001            NaN            NaN            NaN            NaN            NaN            NaN
  1926.28        500.000        95.6557       0.973490        3.34689       0.238942E-001            NaN            NaN            NaN            NaN            NaN            NaN
  1923.08        500.000        95.6302       0.973561        3.37233       0.238959E-001            NaN            NaN            NaN            NaN            NaN            NaN
  1919.87        500.000        95.6057       0.973628        3.39675       0.238975E-001            NaN            NaN            NaN            NaN            NaN            NaN
  1916.67        500.000        95.5812       0.973696        3.42117       0.238992E-001            NaN            NaN            NaN            NaN            NaN            NaN
  1913.46        500.000        95.5567       0.973764        3.44560       0.239009E-001            NaN            NaN            NaN            NaN            NaN            NaN
  1910.26        500.000        95.5322       0.973831        3.47003       0.239025E-001            NaN            NaN            NaN            NaN            NaN            NaN
  1907.05        500.000        95.5077       0.973899        3.49446       0.239042E-001            NaN            NaN            NaN            NaN            NaN            NaN
  1903.85        500.000        95.4832       0.973966        3.51890       0.239058E-001            NaN            NaN            NaN            NaN            NaN            NaN
  1900.64        500.000        95.4587       0.974034        3.54334       0.239075E-001            NaN            NaN            NaN            NaN            NaN            NaN
  1897.44        500.000        95.4342       0.974102        3.56779       0.239092E-001            NaN            NaN            NaN            NaN            NaN            NaN
  1894.23        500.000        95.4107       0.974166        3.59123       0.239107E-001            NaN            NaN            NaN            NaN            NaN            NaN
  1891.03        500.000        95.3872       0.974231        3.61468       0.239123E-001            NaN            NaN            NaN            NaN            NaN            NaN
  1887.82        500.000        95.3637       0.974296        3.63814       0.239139E-001            NaN            NaN            NaN            NaN            NaN            NaN
  1884.62        500.000        95.3401       0.974361        3.66160       0.239155E-001            NaN            NaN            NaN            NaN            NaN            NaN
  1881.41        500.000        95.3166       0.974426        3.68506       0.239171E-001            NaN            NaN            NaN            NaN            NaN            NaN
  1878.21        500.000        95.2931       0.974491        3.70852       0.239187E-001            NaN            NaN            NaN            NaN            NaN            NaN
  1875.00        500.000        95.2695       0.974556        3.73199       0.239203E-001            NaN            NaN            NaN            NaN            NaN            NaN
  1871.79        500.000        95.2460       0.974621        3.75546       0.239219E-001            NaN            NaN            NaN            NaN            NaN            NaN
  1868.59        500.000        95.2234       0.974683        3.77795       0.239234E-001            NaN            NaN            NaN            NaN            NaN            NaN
  1865.38        500.000        95.2009       0.974745        3.80044       0.239249E-001            NaN            NaN            NaN            NaN            NaN            NaN
  1862.18        500.000        95.1783       0.974807        3.82294       0.239265E-001            NaN            NaN            NaN            NaN            NaN            NaN
  1858.97        500.000        95.1558       0.974869        3.84544       0.239280E-001            NaN            NaN            NaN            NaN            NaN            NaN
  1855.77        500.000        95.1332       0.974932        3.86794       0.239295E-001            NaN            NaN            NaN            NaN            NaN            NaN
  1852.56        500.000        95.1106       0.974994        3.89045       0.239311E-001            NaN            NaN            NaN            NaN            NaN            NaN
  1849.36        500.000        95.0881       0.975056        3.91296       0.239326E-001            NaN            NaN            NaN            NaN            NaN            NaN
  1846.15        500.000        95.0655       0.975118        3.93547       0.239341E-001            NaN            NaN            NaN            NaN            NaN            NaN
  1842.95        500.000        95.0439       0.975178        3.95702       0.239356E-001            NaN            NaN            NaN            NaN            NaN            NaN
  1839.74        500.000        95.0223       0.975238        3.97857       0.239370E-001            NaN            NaN            NaN            NaN            NaN            NaN
  1836.54        500.000        95.0006       0.975297        4.00012       0.239385E-001            NaN            NaN            NaN            NaN            NaN            NaN
  1833.33        500.000        94.9790       0.975357        4.02168       0.239400E-001            NaN            NaN            NaN            NaN            NaN            NaN
  1830.13        500.000        94.9574       0.975416        4.04324       0.239414E-001            NaN            NaN            NaN            NaN            NaN            NaN
  1826.92        500.000        94.9358       0.975476        4.06480       0.239429E-001            NaN            NaN            NaN            NaN            NaN            NaN
  1823.72        500.000        94.9142       0.975536        4.08637       0.239443E-001            NaN            NaN            NaN            NaN            NaN            NaN
  1820.51        500.000        94.8925       0.975595        4.10793       0.239458E-001            NaN            NaN            NaN            NaN            NaN            NaN
  1817.31        500.000        94.8718       0.975652        4.12855       0.239472E-001            NaN            NaN            NaN            NaN            NaN            NaN
  1814.10        500.000        94.8512       0.975709        4.14917       0.239486E-001            NaN            NaN            NaN            NaN            NaN            NaN
  1810.90        500.000        94.8305       0.975766        4.16980       0.239500E-001            NaN            NaN            NaN            NaN            NaN            NaN
  1807.69        500.000        94.8098       0.975823        4.19042       0.239514E-001            NaN            NaN            NaN            NaN            NaN            NaN
  1804.49        500.000        94.7891       0.975880        4.21105       0.239528E-001            NaN            NaN            NaN            NaN            NaN            NaN
  1801.28        500.000        94.7684       0.975937        4.23168       0.239542E-001            NaN            NaN            NaN            NaN            NaN            NaN
  1798.08        500.000        94.7477       0.975994        4.25231       0.239556E-001            NaN            NaN            NaN            NaN            NaN            NaN
  1794.87        500.000        94.7270       0.976051        4.27295       0.239570E-001            NaN            NaN            NaN            NaN            NaN            NaN
  1791.67        500.000        94.7073       0.976105        4.29265       0.239583E-001            NaN            NaN            NaN            NaN            NaN            NaN
  1788.46        500.000        94.6875       0.976160        4.31235       0.239597E-001            NaN            NaN            NaN            NaN            NaN            NaN
  1785.26        500.000        94.6678       0.976214        4.33206       0.239610E-001            NaN            NaN            NaN            NaN            NaN            NaN
  1782.05        500.000        94.6480       0.976269        4.35177       0.239623E-001            NaN            NaN            NaN            NaN            NaN            NaN
  1778.85        500.000        94.6282       0.976323        4.37148       0.239637E-001            NaN            NaN            NaN            NaN            NaN            NaN
  1775.64        500.000        94.6085       0.976378        4.39119       0.239650E-001            NaN            NaN            NaN            NaN            NaN            NaN
  1772.44        500.000        94.5887       0.976432        4.41090       0.239664E-001            NaN            NaN            NaN            NaN            NaN            NaN
  1769.23        500.000        94.5689       0.976487        4.43062       0.239677E-001            NaN            NaN            NaN            NaN            NaN            NaN
  1766.03        500.000        94.5501       0.976538        4.44941       0.239690E-001            NaN            NaN            NaN            NaN            NaN            NaN
  1762.82        500.000        94.5312       0.976590        4.46821       0.239702E-001            NaN            NaN            NaN            NaN            NaN            NaN
  1759.62        500.000        94.5124       0.976642        4.48701       0.239715E-001            NaN            NaN            NaN            NaN            NaN            NaN
  1756.41        500.000        94.4935       0.976694        4.50581       0.239728E-001            NaN            NaN            NaN            NaN            NaN            NaN
  1753.21        500.000        94.4747       0.976746        4.52461       0.239741E-001            NaN            NaN            NaN            NaN            NaN            NaN
  1750.00        500.000        94.4558       0.976798        4.54341       0.239753E-001            NaN            NaN            NaN            NaN            NaN            NaN
  1746.79        500.000        94.4370       0.976850        4.56222       0.239766E-001            NaN            NaN            NaN            NaN            NaN            NaN
  1743.59        500.000        94.4181       0.976902        4.58103       0.239779E-001            NaN            NaN            NaN            NaN            NaN            NaN
  1740.38        500.000        94.4001       0.976951        4.59892       0.239791E-001            NaN            NaN            NaN            NaN            NaN            NaN
  1737.18        500.000        94.3822       0.977000        4.61682       0.239803E-001            NaN            NaN            NaN            NaN            NaN            NaN
  1733.97        500.000        94.3642       0.977050        4.63472       0.239815E-001            NaN            NaN            NaN            NaN            NaN            NaN
  1730.77        500.000        94.3463       0.977099        4.65262       0.239827E-001            NaN            NaN            NaN            NaN            NaN            NaN
  1727.56        500.000        94.3283       0.977149        4.67053       0.239839E-001            NaN            NaN            NaN            NaN            NaN            NaN
  1724.36        500.000        94.3104       0.977198        4.68843       0.239852E-001            NaN            NaN            NaN            NaN            NaN            NaN
  1721.15        500.000        94.2924       0.977247        4.70634       0.239864E-001            NaN            NaN            NaN            NaN            NaN            NaN
  1717.95        500.000        94.2745       0.977297        4.72425       0.239876E-001            NaN            NaN            NaN            NaN            NaN            NaN
  1714.74        500.000        94.2574       0.977344        4.74125       0.239887E-001            NaN            NaN            NaN            NaN            NaN            NaN
  1711.54        500.000        94.2404       0.977391        4.75825       0.239899E-001            NaN            NaN            NaN            NaN            NaN            NaN
  1708.33        500.000        94.2233       0.977437        4.77525       0.239910E-001            NaN            NaN            NaN            NaN            NaN            NaN
  1705.13        500.000        94.2063       0.977484        4.79225       0.239922E-001            NaN            NaN            NaN            NaN            NaN            NaN
  1701.92        500.000        94.1892       0.977531        4.80926       0.239933E-001            NaN            NaN            NaN            NaN            NaN            NaN
  1698.72        500.000        94.1722       0.977578        4.82627       0.239945E-001            NaN            NaN            NaN            NaN            NaN            NaN
  1695.51        500.000        94.1551       0.977625        4.84327       0.239956E-001            NaN            NaN            NaN            NaN            NaN            NaN
  1692.31        500.000        94.1380       0.977672        4.86029       0.239968E-001            NaN            NaN            NaN            NaN            NaN            NaN
  1689.10        500.000        94.1217       0.977717        4.87663       0.239979E-001            NaN            NaN            NaN            NaN            NaN            NaN
  1685.90        500.000        94.1053       0.977762        4.89298       0.239990E-001            NaN            NaN            NaN            NaN            NaN            NaN
  1682.69        500.000        94.0889       0.977807        4.90932       0.240001E-001            NaN            NaN            NaN            NaN            NaN            NaN
  1679.49        500.000        94.0725       0.977852        4.92567       0.240012E-001            NaN            NaN            NaN            NaN            NaN            NaN
  1676.28        500.000        94.0564       0.977896        4.94170       0.240023E-001            NaN            NaN            NaN            NaN            NaN            NaN
  1673.08        500.000        94.0403       0.977940        4.95772       0.240034E-001            NaN            NaN            NaN            NaN            NaN            NaN
  1669.87        500.000        94.0245       0.977984        4.97353       0.240044E-001            NaN            NaN            NaN            NaN            NaN            NaN
  1666.67        500.000        93.9881       0.978037        4.99279       0.240057E-001  0.170891E-001            NaN            NaN            NaN            NaN            NaN
  1663.46        500.000        93.9651       0.978073        5.00577       0.240066E-001  0.270844E-001            NaN            NaN            NaN            NaN            NaN
  1660.26        500.000        93.9421       0.978108        5.01875       0.240075E-001  0.370804E-001            NaN            NaN            NaN            NaN            NaN
  1657.05        500.000        93.9190       0.978144        5.03173       0.240084E-001  0.470771E-001            NaN            NaN            NaN            NaN            NaN
  1653.85        500.000        93.8960       0.978179        5.04471       0.240092E-001  0.570745E-001            NaN            NaN            NaN            NaN            NaN
