|6.6.6
Archiving\03_Data\frac/QFM_m1/TAY13/TAY13_6.tab                           
           1
T(K)    
  0.000000000000000E+000
  0.000000000000000E+000
           0
           3
T(K)           P(bar)         rho,kg/m3     
  2000.00        2500.00        5062.53     
  1997.49        2500.00        5063.27     
  1994.99        2500.00        5064.00     
  1992.48        2500.00        5064.73     
  1989.97        2500.00        5065.46     
  1987.47        2500.00        5066.19     
  1984.96        2500.00        5066.92     
  1982.46        2500.00        5067.65     
  1979.95        2500.00        5068.38     
  1977.44        2500.00        5069.11     
  1974.94        2500.00        5069.84     
  1972.43        2500.00        4036.38     
  1969.92        2500.00        2951.83     
  1967.42        2500.00        2952.42     
  1964.91        2500.00        2953.01     
  1962.41        2500.00        2953.60     
  1959.90        2500.00        2954.19     
  1957.39        2500.00        2954.78     
  1954.89        2500.00        2955.37     
  1952.38        2500.00        2955.96     
  1949.87        2500.00        2956.55     
  1947.37        2500.00        2957.14     
  1944.86        2500.00        2957.73     
  1942.36        2500.00        2958.32     
  1939.85        2500.00        2958.91     
  1937.34        2500.00        2959.50     
  1934.84        2500.00        2960.09     
  1932.33        2500.00        2960.68     
  1929.82        2500.00        2961.27     
  1927.32        2500.00        2961.86     
  1924.81        2500.00        2962.45     
  1922.31        2500.00        2963.04     
  1919.80        2500.00        2963.63     
  1917.29        2500.00        2964.22     
  1914.79        2500.00        2964.81     
  1912.28        2500.00        3165.61     
  1909.77        2500.00        3166.96     
  1907.27        2500.00        3168.55     
  1904.76        2500.00        3170.27     
  1902.26        2500.00        3171.99     
  1899.75        2500.00        3173.60     
  1897.24        2500.00        3175.63     
  1894.74        2500.00        3177.33     
  1892.23        2500.00        3179.11     
  1889.72        2500.00        3178.28     
  1887.22        2500.00        3182.17     
  1884.71        2500.00        3184.34     
  1882.21        2500.00        3190.50     
  1879.70        2500.00        3194.40     
  1877.19        2500.00        3210.10     
  1874.69        2500.00        3211.17     
  1872.18        2500.00        3212.75     
  1869.67        2500.00        3214.92     
  1867.17        2500.00        3216.79     
  1864.66        2500.00        3218.17     
  1862.16        2500.00        3220.10     
  1859.65        2500.00        3230.54     
  1857.14        2500.00        3222.59     
  1854.64        2500.00        3226.18     
  1852.13        2500.00        3228.09     
  1849.62        2500.00        3229.93     
  1847.12        2500.00        3231.74     
  1844.61        2500.00        3233.45     
  1842.11        2500.00        3235.53     
  1839.60        2500.00        3236.78     
  1837.09        2500.00        3239.42     
  1834.59        2500.00        3240.76     
  1832.08        2500.00        3242.33     
  1829.57        2500.00        3244.82     
  1827.07        2500.00        3246.75     
  1824.56        2500.00        3248.56     
  1822.06        2500.00        3251.56     
  1819.55        2500.00        3252.45     
  1817.04        2500.00        3254.33     
  1814.54        2500.00        3256.73     
  1812.03        2500.00        3258.52     
  1809.52        2500.00        3260.11     
  1807.02        2500.00        3262.39     
  1804.51        2500.00        3264.04     
  1802.01        2500.00        3266.18     
  1799.50        2500.00        3268.48     
  1796.99        2500.00        3270.07     
  1794.49        2500.00        3272.12     
  1791.98        2500.00        3274.69     
  1789.47        2500.00        3275.55     
  1786.97        2500.00        3278.14     
  1784.46        2500.00        3279.96     
  1781.95        2500.00        3282.46     
  1779.45        2500.00        3285.50     
  1776.94        2500.00        3286.07     
  1774.44        2500.00        3288.01     
  1771.93        2500.00        3291.70     
  1769.42        2500.00        3292.02     
  1766.92        2500.00        3294.71     
  1764.41        2500.00        3296.03     
  1761.90        2500.00        3298.18     
  1759.40        2500.00        3299.99     
  1756.89        2500.00        3301.66     
  1754.39        2500.00        3304.12     
  1751.88        2500.00        3304.99     
  1749.37        2500.00        3304.21     
  1746.87        2500.00        3309.89     
  1744.36        2500.00        3311.79     
  1741.85        2500.00        3314.69     
  1739.35        2500.00        3315.66     
  1736.84        2500.00        3318.66     
  1734.34        2500.00        3320.54     
  1731.83        2500.00        3322.30     
  1729.32        2500.00        3325.38     
  1726.82        2500.00        3326.56     
  1724.31        2500.00        3328.53     
  1721.80        2500.00        3330.59     
  1719.30        2500.00        3332.26     
  1716.79        2500.00        3334.74     
  1714.29        2500.00        3336.49     
  1711.78        2500.00        3338.51     
  1709.27        2500.00        3341.25     
  1706.77        2500.00        3342.48     
  1704.26        2500.00        3344.66     
  1701.75        2500.00        3346.40     
  1699.25        2500.00        3348.57     
  1696.74        2500.00        3350.83     
  1694.24        2500.00        3352.88     
  1691.73        2500.00        3355.04     
  1689.22        2500.00        3357.04     
  1686.72        2500.00        3359.46     
  1684.21        2500.00        3361.19     
  1681.70        2500.00        3363.22     
  1679.20        2500.00        3365.05     
  1676.69        2500.00        3367.12     
  1674.19        2500.00        3368.88     
  1671.68        2500.00        3370.73     
  1669.17        2500.00        3373.38     
  1666.67        2500.00        3374.90     
  1664.16        2500.00        3375.76     
  1661.65        2500.00        2934.66     
  1659.15        2500.00        3381.99     
  1656.64        2500.00        3383.88     
  1654.14        2500.00        3384.21     
  1651.63        2500.00        3386.88     
  1649.12        2500.00        3388.92     
  1646.62        2500.00        3390.99     
  1644.11        2500.00        3393.28     
  1641.60        2500.00        3395.76     
  1639.10        2500.00        3397.32     
  1636.59        2500.00        3399.71     
  1634.09        2500.00        3400.57     
  1631.58        2500.00        3402.41     
  1629.07        2500.00        3404.62     
  1626.57        2500.00        3407.05     
  1624.06        2500.00        3408.50     
  1621.55        2500.00        3409.08     
  1619.05        2500.00        3393.69     
  1616.54        2500.00        3292.76     
  1614.04        2500.00        3294.37     
  1611.53        2500.00        3296.23     
  1609.02        2500.00        3296.68     
  1606.52        2500.00        3298.88     
  1604.01        2500.00        3299.98     
  1601.50        2500.00        3301.01     
  1599.00        2500.00        3303.14     
  1596.49        2500.00        3304.95     
  1593.98        2500.00        3305.95     
  1591.48        2500.00        3307.63     
  1588.97        2500.00        3308.27     
  1586.47        2500.00        3310.38     
  1583.96        2500.00        3311.77     
  1581.45        2500.00        3312.83     
  1578.95        2500.00        3314.23     
  1576.44        2500.00        3315.66     
  1573.93        2500.00        3316.76     
  1571.43        2500.00        3318.53     
  1568.92        2500.00        3320.55     
  1566.42        2500.00        3321.32     
  1563.91        2500.00        3323.39     
  1561.40        2500.00        3324.73     
  1558.90        2500.00        3326.58     
  1556.39        2500.00        3326.65     
  1553.88        2500.00        3328.84     
  1551.38        2500.00        3329.36     
  1548.87        2500.00        3331.23     
  1546.37        2500.00        3333.52     
  1543.86        2500.00        3333.17     
  1541.35        2500.00        3334.89     
  1538.85        2500.00        3336.14     
  1536.34        2500.00        3336.84     
  1533.83        2500.00        3338.98     
  1531.33        2500.00        3341.22     
  1528.82        2500.00        3342.07     
  1526.32        2500.00        3343.50     
  1523.81        2500.00        3344.44     
  1521.30        2500.00        3344.78     
  1518.80        2500.00        3347.15     
  1516.29        2500.00        3353.68     
  1513.78        2500.00        3344.33     
  1511.28        2500.00        3351.72     
  1508.77        2500.00        3352.29     
  1506.27        2500.00        3352.97     
  1503.76        2500.00        3354.88     
  1501.25        2500.00        3354.87     
  1498.75        2500.00        3356.71     
  1496.24        2500.00        3357.42     
  1493.73        2500.00        3358.60     
  1491.23        2500.00        3360.11     
  1488.72        2500.00        3360.84     
  1486.22        2500.00        3361.70     
  1483.71        2500.00        3363.68     
  1481.20        2500.00        3364.63     
  1478.70        2500.00        3366.59     
  1476.19        2500.00        3366.35     
  1473.68        2500.00        3367.70     
  1471.18        2500.00        3368.90     
  1468.67        2500.00        3346.69     
  1466.17        2500.00        3342.94     
  1463.66        2500.00        3339.57     
  1461.15        2500.00        3341.38     
  1458.65        2500.00        3342.88     
  1456.14        2500.00        3343.62     
  1453.63        2500.00        3345.00     
  1451.13        2500.00        3347.30     
  1448.62        2500.00        3347.90     
  1446.12        2500.00        3338.38     
  1443.61        2500.00        3324.57     
  1441.10        2500.00        3326.79     
  1438.60        2500.00        3329.58     
  1436.09        2500.00        3331.83     
  1433.58        2500.00        3334.38     
  1431.08        2500.00        3338.70     
  1428.57        2500.00        3340.74     
  1426.07        2500.00        3360.59     
  1423.56        2500.00        3362.28     
  1421.05        2500.00        3364.69     
  1418.55        2500.00        3367.12     
  1416.04        2500.00        3369.12     
  1413.53        2500.00        3372.80     
  1411.03        2500.00        3373.92     
  1408.52        2500.00        3375.84     
  1406.02        2500.00        3312.56     
  1403.51        2500.00        3188.05     
  1401.00        2500.00        3192.19     
  1398.50        2500.00        3196.24     
  1395.99        2500.00        3200.45     
  1393.48        2500.00        3204.57     
  1390.98        2500.00        3208.66     
  1388.47        2500.00        3212.87     
  1385.96        2500.00        3217.07     
  1383.46        2500.00        3221.37     
  1380.95        2500.00        3225.33     
  1378.45        2500.00        3229.42     
  1375.94        2500.00        3233.64     
  1373.43        2500.00        3237.85     
  1370.93        2500.00        3241.54     
  1368.42        2500.00        3245.99     
  1365.91        2500.00        3249.93     
  1363.41        2500.00        3253.99     
  1360.90        2500.00        3257.73     
  1358.40        2500.00        3237.01     
  1355.89        2500.00        3278.81     
  1353.38        2500.00        3269.58     
  1350.88        2500.00        3272.96     
  1348.37        2500.00        3276.78     
  1345.86        2500.00        3279.88     
  1343.36        2500.00        3282.49     
  1340.85        2500.00        3286.36     
  1338.35        2500.00        3289.31     
  1335.84        2500.00        3292.79     
  1333.33        2500.00        3295.43     
  1330.83        2500.00        3298.68     
  1328.32        2500.00        3301.52     
  1325.81        2500.00        3304.66     
  1323.31        2500.00        3307.42     
  1320.80        2500.00        3309.33     
  1318.30        2500.00        3312.59     
  1315.79        2500.00        3314.98     
  1313.28        2500.00        3317.70     
  1310.78        2500.00        3318.73     
  1308.27        2500.00        3322.06     
  1305.76        2500.00        3323.02     
  1303.26        2500.00        3326.00     
  1300.75        2500.00        3328.07     
  1298.25        2500.00        2975.07     
  1295.74        2500.00        2845.67     
  1293.23        2500.00        2853.37     
  1290.73        2500.00        2861.00     
  1288.22        2500.00        2868.54     
  1285.71        2500.00        2887.21     
  1283.21        2500.00        2901.75     
  1280.70        2500.00        2906.12     
  1278.20        2500.00        2909.59     
  1275.69        2500.00        2913.52     
  1273.18        2500.00        2916.51     
  1270.68        2500.00        2910.58     
  1268.17        2500.00        2920.12     
  1265.66        2500.00        2926.62     
  1263.16        2500.00        2922.66     
  1260.65        2500.00        2919.06     
  1258.15        2500.00        2926.33     
  1255.64        2500.00        2927.92     
  1253.13        2500.00        2928.67     
  1250.63        2500.00        2927.58     
  1248.12        2500.00        2886.76     
  1245.61        2500.00        2994.54     
  1243.11        2500.00        2914.17     
  1240.60        2500.00        2919.20     
  1238.10        2500.00        2815.73     
  1235.59        2500.00        3670.97     
  1233.08        2500.00        2888.47     
  1230.58        2500.00        3018.27     
  1228.07        2500.00        2740.84     
  1225.56        2500.00        2707.83     
  1223.06        2500.00        2693.16     
  1220.55        2500.00        2693.59     
  1218.05        2500.00        2693.72     
  1215.54        2500.00        2693.85     
  1213.03        2500.00        2694.10     
  1210.53        2500.00        2694.10     
  1208.02        2500.00        2694.46     
  1205.51        2500.00        2694.50     
  1203.01        2500.00        2694.90     
  1200.50        2500.00        2694.64     
  1197.99        2500.00        2694.76     
  1195.49        2500.00        2694.88     
  1192.98        2500.00        2695.00     
  1190.48        2500.00        2695.13     
  1187.97        2500.00        2695.25     
  1185.46        2500.00        2695.51     
  1182.96        2500.00        2695.63     
  1180.45        2500.00        2695.76     
  1177.94        2500.00        2695.89     
  1175.44        2500.00        2695.87     
  1172.93        2500.00        2696.00     
  1170.43        2500.00        2696.12     
  1167.92        2500.00        2696.25     
  1165.41        2500.00        2696.38     
  1162.91        2500.00        2696.50     
  1160.40        2500.00        2696.94     
  1157.89        2500.00        2696.88     
  1155.39        2500.00        2697.00     
  1152.88        2500.00        2697.12     
  1150.38        2500.00        2697.24     
  1147.87        2500.00        2697.61     
  1145.36        2500.00        2697.40     
  1142.86        2500.00        2697.57     
  1140.35        2500.00        2697.98     
  1137.84        2500.00        2697.77     
  1135.34        2500.00        2697.89     
  1132.83        2500.00        2698.10     
  1130.33        2500.00        2698.24     
  1127.82        2500.00        2698.36     
  1125.31        2500.00        2698.48     
  1122.81        2500.00        2698.60     
  1120.30        2500.00        2698.72     
  1117.79        2500.00        2698.84     
  1115.29        2500.00        2698.96     
  1112.78        2500.00        2699.09     
  1110.28        2500.00        2699.21     
  1107.77        2500.00        2699.33     
  1105.26        2500.00        2699.45     
  1102.76        2500.00        2699.57     
  1100.25        2500.00        2699.69     
  1097.74        2500.00        2699.82     
  1095.24        2500.00        2699.94     
  1092.73        2500.00        2700.06     
  1090.23        2500.00        2700.18     
  1087.72        2500.00        2700.30     
  1085.21        2500.00        2700.42     
  1082.71        2500.00        2700.55     
  1080.20        2500.00        2700.67     
  1077.69        2500.00        2700.79     
  1075.19        2500.00        2701.34     
  1072.68        2500.00        2701.03     
  1070.18        2500.00        2701.14     
  1067.67        2500.00        2701.27     
  1065.16        2500.00        2701.37     
  1062.66        2500.00        2701.49     
  1060.15        2500.00        2701.62     
  1057.64        2500.00        2701.75     
  1055.14        2500.00        2701.89     
  1052.63        2500.00        2701.99     
  1050.13        2500.00        2702.12     
  1047.62        2500.00        2702.24     
  1045.11        2500.00        2702.36     
  1042.61        2500.00        2702.47     
  1040.10        2500.00        2702.59     
  1037.59        2500.00        2702.72     
  1035.09        2500.00        2693.09     
  1032.58        2500.00        2702.96     
  1030.08        2500.00        2693.35     
  1027.57        2500.00        2703.20     
  1025.06        2500.00        2703.31     
  1022.56        2500.00        2703.43     
  1020.05        2500.00        2703.55     
  1017.54        2500.00        2703.67     
  1015.04        2500.00        2703.80     
  1012.53        2500.00        2704.01     
  1010.03        2500.00        2704.13     
  1007.52        2500.00        2704.16     
  1005.01        2500.00        2704.40     
  1002.51        2500.00        2704.36     
  1000.00        2500.00        2695.79     
