|6.6.6
Archiving\03_Data\fracLP/QFM/LAR/LAR_6.tab                                
           1
T(K)    
  0.000000000000000E+000
  0.000000000000000E+000
           0
           3
T(K)           P(bar)         rho,kg/m3     
  2000.00        500.000        3552.33     
  1997.49        500.000        3552.70     
  1994.99        500.000        3553.07     
  1992.48        500.000        3553.44     
  1989.97        500.000        3553.81     
  1987.47        500.000        3554.18     
  1984.96        500.000        3554.55     
  1982.46        500.000        3554.92     
  1979.95        500.000        3555.29     
  1977.44        500.000        3555.66     
  1974.94        500.000        3556.03     
  1972.43        500.000        3556.40     
  1969.92        500.000        3556.77     
  1967.42        500.000        3557.14     
  1964.91        500.000        3557.50     
  1962.41        500.000        3557.87     
  1959.90        500.000        3558.24     
  1957.39        500.000        3558.61     
  1954.89        500.000        3558.98     
  1952.38        500.000        3559.35     
  1949.87        500.000        3559.72     
  1947.37        500.000        3560.08     
  1944.86        500.000        3560.45     
  1942.36        500.000        3560.82     
  1939.85        500.000        3561.19     
  1937.34        500.000        3561.56     
  1934.84        500.000        3561.92     
  1932.33        500.000        3562.29     
  1929.82        500.000        3562.66     
  1927.32        500.000        3563.03     
  1924.81        500.000        3563.39     
  1922.31        500.000        3563.76     
  1919.80        500.000        3564.13     
  1917.29        500.000        3564.49     
  1914.79        500.000        3564.86     
  1912.28        500.000        3565.23     
  1909.77        500.000        3565.59     
  1907.27        500.000        3565.96     
  1904.76        500.000        3566.32     
  1902.26        500.000        3566.69     
  1899.75        500.000        3567.06     
  1897.24        500.000        3567.42     
  1894.74        500.000        3567.79     
  1892.23        500.000        3568.15     
  1889.72        500.000        3568.52     
  1887.22        500.000        3568.88     
  1884.71        500.000        3569.25     
  1882.21        500.000        3569.61     
  1879.70        500.000        3569.98     
  1877.19        500.000        3570.34     
  1874.69        500.000        3570.71     
  1872.18        500.000        3571.07     
  1869.67        500.000        3571.44     
  1867.17        500.000        3571.80     
  1864.66        500.000        3572.16     
  1862.16        500.000        3572.53     
  1859.65        500.000        3572.89     
  1857.14        500.000        3573.25     
  1854.64        500.000        3573.62     
  1852.13        500.000        3573.98     
  1849.62        500.000        3574.35     
  1847.12        500.000        3574.71     
  1844.61        500.000        3575.07     
  1842.11        500.000        3575.43     
  1839.60        500.000        3575.80     
  1837.09        500.000        3576.16     
  1834.59        500.000        3576.52     
  1832.08        500.000        3576.88     
  1829.57        500.000        3577.25     
  1827.07        500.000        3577.61     
  1824.56        500.000        3577.97     
  1822.06        500.000        3578.33     
  1819.55        500.000        3578.70     
  1817.04        500.000        3579.06     
  1814.54        500.000        3579.42     
  1812.03        500.000        3579.78     
  1809.52        500.000        3580.14     
  1807.02        500.000        3580.50     
  1804.51        500.000        3580.86     
  1802.01        500.000        3581.22     
  1799.50        500.000        3581.59     
  1796.99        500.000        3581.95     
  1794.49        500.000        3582.31     
  1791.98        500.000        3582.67     
  1789.47        500.000        3583.03     
  1786.97        500.000        3583.39     
  1784.46        500.000        3583.75     
  1781.95        500.000        3584.11     
  1779.45        500.000        3584.47     
  1776.94        500.000        3584.83     
  1774.44        500.000        3585.19     
  1771.93        500.000        3585.55     
  1769.42        500.000        3585.91     
  1766.92        500.000        3586.27     
  1764.41        500.000        3586.63     
  1761.90        500.000        3586.98     
  1759.40        500.000        3587.34     
  1756.89        500.000        3587.70     
  1754.39        500.000        3588.06     
  1751.88        500.000        3588.42     
  1749.37        500.000        3588.78     
  1746.87        500.000        3589.14     
  1744.36        500.000        3589.49     
  1741.85        500.000        3589.85     
  1739.35        500.000        3590.21     
  1736.84        500.000        3590.57     
  1734.34        500.000        3590.93     
  1731.83        500.000        3591.28     
  1729.32        500.000        3591.64     
  1726.82        500.000        3592.00     
  1724.31        500.000        3592.36     
  1721.80        500.000        3592.71     
  1719.30        500.000        3593.07     
  1716.79        500.000        3593.43     
  1714.29        500.000        3593.78     
  1711.78        500.000        3594.14     
  1709.27        500.000        3594.50     
  1706.77        500.000        3594.85     
  1704.26        500.000        3595.21     
  1701.75        500.000        3595.57     
  1699.25        500.000        3595.92     
  1696.74        500.000        3596.28     
  1694.24        500.000        3596.63     
  1691.73        500.000        3596.99     
  1689.22        500.000        3597.35     
  1686.72        500.000        3597.70     
  1684.21        500.000        3598.06     
  1681.70        500.000        3598.41     
  1679.20        500.000        3598.77     
  1676.69        500.000        3603.12     
  1674.19        500.000        3610.71     
  1671.68        500.000        3611.06     
  1669.17        500.000        3611.36     
  1666.67        500.000        3611.55     
  1664.16        500.000        3611.86     
  1661.65        500.000        3620.07     
  1659.15        500.000        3604.36     
  1656.64        500.000        3612.62     
  1654.14        500.000        3612.93     
  1651.63        500.000        3613.35     
  1649.12        500.000        3613.30     
  1646.62        500.000        3613.76     
  1644.11        500.000        3613.97     
  1641.60        500.000        3614.32     
  1639.10        500.000        3614.51     
  1636.59        500.000        3614.81     
  1634.09        500.000        3615.09     
  1631.58        500.000        3615.37     
  1629.07        500.000        3615.63     
  1626.57        500.000        3615.91     
  1624.06        500.000        3616.20     
  1621.55        500.000        3616.45     
  1619.05        500.000        3616.72     
  1616.54        500.000        3617.00     
  1614.04        500.000        3617.27     
  1611.53        500.000        3617.56     
  1609.02        500.000        3617.84     
  1606.52        500.000        3618.10     
  1604.01        500.000        3618.40     
  1601.50        500.000        3618.68     
  1599.00        500.000        3618.91     
  1596.49        500.000        3554.00     
  1593.98        500.000        3404.06     
  1591.48        500.000        3405.35     
  1588.97        500.000        3406.73     
  1586.47        500.000        3408.62     
  1583.96        500.000        3411.12     
  1581.45        500.000        3413.32     
  1578.95        500.000        3416.33     
  1576.44        500.000        3417.60     
  1573.93        500.000        3419.66     
  1571.43        500.000        3422.36     
  1568.92        500.000        3427.33     
  1566.42        500.000        3429.77     
  1563.91        500.000        3428.26     
  1561.40        500.000        3430.68     
  1558.90        500.000        3432.86     
  1556.39        500.000        3435.05     
  1553.88        500.000        3437.78     
  1551.38        500.000        3439.64     
  1548.87        500.000        3442.26     
  1546.37        500.000        3444.19     
  1543.86        500.000        3445.73     
  1541.35        500.000        3448.80     
  1538.85        500.000        3448.45     
  1536.34        500.000        3453.00     
  1533.83        500.000        3456.69     
  1531.33        500.000        3457.50     
  1528.82        500.000        3459.90     
  1526.32        500.000        3461.39     
  1523.81        500.000        3465.11     
  1521.30        500.000        3467.04     
  1518.80        500.000        3468.73     
  1516.29        500.000        3470.37     
  1513.78        500.000        3475.37     
  1511.28        500.000        3475.79     
  1508.77        500.000        3478.25     
  1506.27        500.000        3480.13     
  1503.76        500.000        3481.90     
  1501.25        500.000        3483.53     
  1498.75        500.000        3342.47     
  1496.24        500.000        3317.67     
  1493.73        500.000        3318.20     
  1491.23        500.000        3320.23     
  1488.72        500.000        3320.35     
  1486.22        500.000        3321.44     
  1483.71        500.000        3323.42     
  1481.20        500.000        3323.30     
  1478.70        500.000        3325.08     
  1476.19        500.000        3325.89     
  1473.68        500.000        3326.17     
  1471.18        500.000        3328.64     
  1468.67        500.000        3327.76     
  1466.17        500.000        3330.58     
  1463.66        500.000        3331.21     
  1461.15        500.000        3343.45     
  1458.65        500.000        3333.07     
  1456.14        500.000        3334.00     
  1453.63        500.000        3335.64     
  1451.13        500.000        3336.19     
  1448.62        500.000        3334.03     
  1446.12        500.000        3319.84     
  1443.61        500.000        3320.14     
  1441.10        500.000        3305.09     
  1438.60        500.000        3300.76     
  1436.09        500.000        3303.59     
  1433.58        500.000        3305.60     
  1431.08        500.000        3308.41     
  1428.57        500.000        3310.71     
  1426.07        500.000        3313.07     
  1423.56        500.000        3315.85     
  1421.05        500.000        3318.84     
  1418.55        500.000        3321.31     
  1416.04        500.000        3323.69     
  1413.53        500.000        3326.54     
  1411.03        500.000        3329.11     
  1408.52        500.000        3331.84     
  1406.02        500.000        3334.39     
  1403.51        500.000        3336.94     
  1401.00        500.000        3339.78     
  1398.50        500.000        3342.40     
  1395.99        500.000        3345.32     
  1393.48        500.000        3348.12     
  1390.98        500.000        3350.76     
  1388.47        500.000        3353.77     
  1385.96        500.000        3356.31     
  1383.46        500.000        3359.35     
  1380.95        500.000        3362.28     
  1378.45        500.000        3365.02     
  1375.94        500.000        3367.91     
  1373.43        500.000        3193.46     
  1370.93        500.000        3185.57     
  1368.42        500.000        3191.83     
  1365.91        500.000        3217.67     
  1363.41        500.000        3222.42     
  1360.90        500.000        3226.62     
  1358.40        500.000        3231.86     
  1355.89        500.000        3236.63     
  1353.38        500.000        3241.14     
  1350.88        500.000        3246.15     
  1348.37        500.000        3251.12     
  1345.86        500.000        3255.83     
  1343.36        500.000        3261.37     
  1340.85        500.000        3281.98     
  1338.35        500.000        3297.84     
  1335.84        500.000        3320.60     
  1333.33        500.000        3347.37     
  1330.83        500.000        3370.11     
  1328.32        500.000        3382.73     
  1325.81        500.000        3389.67     
  1323.31        500.000        3394.28     
  1320.80        500.000        3396.65     
  1318.30        500.000        3398.64     
  1315.79        500.000        3399.80     
  1313.28        500.000        3401.09     
  1310.78        500.000        3402.12     
  1308.27        500.000        3402.73     
  1305.76        500.000        3403.54     
  1303.26        500.000        3404.11     
  1300.75        500.000        3404.50     
  1298.25        500.000        3404.82     
  1295.74        500.000        3405.21     
  1293.23        500.000        3405.55     
  1290.73        500.000        3405.63     
  1288.22        500.000        3405.66     
  1285.71        500.000        3405.71     
  1283.21        500.000        3405.67     
  1280.70        500.000        3405.52     
  1278.20        500.000        3405.34     
  1275.69        500.000        3405.04     
  1273.18        500.000        3404.52     
  1270.68        500.000        3404.05     
  1268.17        500.000        3403.47     
  1265.66        500.000        3402.81     
  1263.16        500.000        3194.36     
  1260.65        500.000        2859.27     
  1258.15        500.000        2860.98     
  1255.64        500.000        2862.54     
  1253.13        500.000        2863.70     
  1250.63        500.000        2864.72     
  1248.12        500.000        2865.41     
  1245.61        500.000        2865.74     
  1243.11        500.000        2865.86     
  1240.60        500.000        2865.53     
  1238.10        500.000        2865.00     
  1235.59        500.000        2864.12     
  1233.08        500.000        2862.97     
  1230.58        500.000        2861.38     
  1228.07        500.000        2859.84     
  1225.56        500.000        2857.81     
  1223.06        500.000        2855.85     
  1220.55        500.000        2853.27     
  1218.05        500.000        2851.13     
  1215.54        500.000        2848.23     
  1213.03        500.000        2845.58     
  1210.53        500.000        2843.02     
  1208.02        500.000        2840.81     
  1205.51        500.000        2723.16     
  1203.01        500.000        2667.21     
  1200.50        500.000        2664.17     
  1197.99        500.000        2646.08     
  1195.49        500.000        2692.64     
  1192.98        500.000        2654.54     
  1190.48        500.000        2666.63     
  1187.97        500.000        2636.36     
  1185.46        500.000        2622.49     
  1182.96        500.000        2622.57     
  1180.45        500.000        2622.69     
  1177.94        500.000        2622.86     
  1175.44        500.000        2623.00     
  1172.93        500.000        2623.03     
  1170.43        500.000        2623.28     
  1167.92        500.000        2623.40     
  1165.41        500.000        2623.52     
  1162.91        500.000        2623.64     
  1160.40        500.000        2623.74     
  1157.89        500.000        2623.89     
  1155.39        500.000        2624.01     
  1152.88        500.000        2624.14     
  1150.38        500.000        2624.26     
  1147.87        500.000        2624.38     
  1145.36        500.000        2624.49     
  1142.86        500.000        2624.61     
  1140.35        500.000        2624.71     
  1137.84        500.000        2624.85     
  1135.34        500.000        2624.96     
  1132.83        500.000        2625.08     
  1130.33        500.000        2625.20     
  1127.82        500.000        2625.31     
  1125.31        500.000        2625.44     
  1122.81        500.000        2625.55     
  1120.30        500.000        2625.66     
  1117.79        500.000        2625.77     
  1115.29        500.000        2625.88     
  1112.78        500.000        2625.99     
  1110.28        500.000        2626.11     
  1107.77        500.000        2626.23     
  1105.26        500.000        2626.34     
  1102.76        500.000        2626.45     
  1100.25        500.000        2626.82     
  1097.74        500.000        2626.93     
  1095.24        500.000        2627.07     
  1092.73        500.000        2627.18     
  1090.23        500.000        2627.28     
  1087.72        500.000        2627.51     
  1085.21        500.000        2627.61     
  1082.71        500.000        2627.72     
  1080.20        500.000        2627.83     
  1077.69        500.000        2627.93     
  1075.19        500.000        2628.04     
  1072.68        500.000        2628.15     
  1070.18        500.000        2628.25     
  1067.67        500.000        2628.36     
  1065.16        500.000        2628.47     
  1062.66        500.000        2628.58     
  1060.15        500.000        2628.68     
  1057.64        500.000        2628.84     
  1055.14        500.000        2629.30     
  1052.63        500.000        2629.45     
  1050.13        500.000        2629.59     
  1047.62        500.000        2629.74     
  1045.11        500.000        2629.86     
  1042.61        500.000        2630.00     
  1040.10        500.000        2630.14     
  1037.59        500.000        2630.33     
  1035.09        500.000        2630.42     
  1032.58        500.000        2630.56     
  1030.08        500.000        2630.77     
  1027.57        500.000        2630.92     
  1025.06        500.000        2631.06     
  1022.56        500.000        2631.21     
  1020.05        500.000        2631.35     
  1017.54        500.000        2631.50     
  1015.04        500.000        2631.65     
  1012.53        500.000        2631.79     
  1010.03        500.000        2631.94     
  1007.52        500.000        2632.09     
  1005.01        500.000        2632.23     
  1002.51        500.000        2632.38     
  1000.00        500.000        2632.53     
