|6.6.6
Archiving\03_Data\eqLP/QFM_m2/Y98/Y98_6.tab                               
           1
T(K)    
  0.000000000000000E+000
  0.000000000000000E+000
           0
           3
T(K)           P(bar)         rho,kg/m3     
  2000.00        500.000        3600.76     
  1996.79        500.000        3601.24     
  1993.59        500.000        3601.72     
  1990.38        500.000        3602.21     
  1987.18        500.000        3602.69     
  1983.97        500.000        3603.17     
  1980.77        500.000        3603.66     
  1977.56        500.000        3604.14     
  1974.36        500.000        3604.62     
  1971.15        500.000        3605.11     
  1967.95        500.000        3605.59     
  1964.74        500.000        3606.07     
  1961.54        500.000        3606.55     
  1958.33        500.000        3607.03     
  1955.13        500.000        3607.51     
  1951.92        500.000        3608.00     
  1948.72        500.000        3608.48     
  1945.51        500.000        3608.96     
  1942.31        500.000        3609.44     
  1939.10        500.000        3609.92     
  1935.90        500.000        3610.40     
  1932.69        500.000        3610.88     
  1929.49        500.000        3611.36     
  1926.28        500.000        3611.84     
  1923.08        500.000        3612.32     
  1919.87        500.000        3612.79     
  1916.67        500.000        3613.27     
  1913.46        500.000        3613.75     
  1910.26        500.000        3614.23     
  1907.05        500.000        3614.71     
  1903.85        500.000        3615.19     
  1900.64        500.000        3615.66     
  1897.44        500.000        3616.14     
  1894.23        500.000        3616.62     
  1891.03        500.000        3617.09     
  1887.82        500.000        3617.57     
  1884.62        500.000        3618.05     
  1881.41        500.000        3618.52     
  1878.21        500.000        3619.00     
  1875.00        500.000        3619.48     
  1871.79        500.000        3619.95     
  1868.59        500.000        3620.43     
  1865.38        500.000        3620.90     
  1862.18        500.000        3621.38     
  1858.97        500.000        3621.85     
  1855.77        500.000        3622.33     
  1852.56        500.000        3622.80     
  1849.36        500.000        3623.28     
  1846.15        500.000        3623.75     
  1842.95        500.000        3624.22     
  1839.74        500.000        3624.70     
  1836.54        500.000        3625.17     
  1833.33        500.000        3625.64     
  1830.13        500.000        3626.12     
  1826.92        500.000        3626.59     
  1823.72        500.000        3627.06     
  1820.51        500.000        3627.54     
  1817.31        500.000        3628.01     
  1814.10        500.000        3628.48     
  1810.90        500.000        3628.95     
  1807.69        500.000        3629.42     
  1804.49        500.000        3629.89     
  1801.28        500.000        3630.37     
  1798.08        500.000        3630.84     
  1794.87        500.000        3631.31     
  1791.67        500.000        3631.78     
  1788.46        500.000        3632.25     
  1785.26        500.000        3632.72     
  1782.05        500.000        3633.19     
  1778.85        500.000        3633.66     
  1775.64        500.000        3634.13     
  1772.44        500.000        3634.60     
  1769.23        500.000        3635.07     
  1766.03        500.000        3635.54     
  1762.82        500.000        3636.00     
  1759.62        500.000        3636.47     
  1756.41        500.000        3636.94     
  1753.21        500.000        3637.41     
  1750.00        500.000        3637.88     
  1746.79        500.000        3638.34     
  1743.59        500.000        3638.81     
  1740.38        500.000        3639.28     
  1737.18        500.000        3639.75     
  1733.97        500.000        3640.21     
  1730.77        500.000        3640.68     
  1727.56        500.000        3641.15     
  1724.36        500.000        3641.61     
  1721.15        500.000        3642.08     
  1717.95        500.000        3642.54     
  1714.74        500.000        3643.01     
  1711.54        500.000        3643.48     
  1708.33        500.000        3643.94     
  1705.13        500.000        3644.41     
  1701.92        500.000        3644.87     
  1698.72        500.000        3645.34     
  1695.51        500.000        3645.80     
  1692.31        500.000        3649.05     
  1689.10        500.000        3659.59     
  1685.90        500.000        3669.88     
  1682.69        500.000        3679.94     
  1679.49        500.000        3689.78     
  1676.28        500.000        3699.39     
  1673.08        500.000        3708.80     
  1669.87        500.000        3718.00     
  1666.67        500.000        3727.00     
  1663.46        500.000        3557.13     
  1660.26        500.000        3549.64     
  1657.05        500.000        3542.53     
  1653.85        500.000        3536.39     
  1650.64        500.000        3519.34     
  1647.44        500.000        3505.97     
  1644.23        500.000        3495.22     
  1641.03        500.000        3486.42     
  1637.82        500.000        3468.65     
  1634.62        500.000        3455.93     
  1631.41        500.000        3446.41     
  1628.21        500.000        3439.06     
  1625.00        500.000        3433.23     
  1621.79        500.000        3428.52     
  1618.59        500.000        3424.67     
  1615.38        500.000        3421.46     
  1612.18        500.000        3419.56     
  1608.97        500.000        3418.01     
  1605.77        500.000        3416.73     
  1602.56        500.000        3415.69     
  1599.36        500.000        3414.82     
  1596.15        500.000        3414.11     
  1592.95        500.000        3413.53     
  1589.74        500.000        3413.05     
  1586.54        500.000        3413.37     
  1583.33        500.000        3413.70     
  1580.13        500.000        3414.04     
  1576.92        500.000        3414.39     
  1573.72        500.000        3410.84     
  1570.51        500.000        3398.90     
  1567.31        500.000        3389.57     
  1564.10        500.000        3381.61     
  1560.90        500.000        3376.03     
  1557.69        500.000        3371.10     
  1554.49        500.000        3366.73     
  1551.28        500.000        3362.83     
  1548.08        500.000        3359.33     
  1544.87        500.000        3356.19     
  1541.67        500.000        3353.35     
  1538.46        500.000        3350.78     
  1535.26        500.000        3349.22     
  1532.05        500.000        3347.78     
  1528.85        500.000        3346.46     
  1525.64        500.000        3345.25     
  1522.44        500.000        3344.14     
  1519.23        500.000        3343.12     
  1516.03        500.000        3342.18     
  1512.82        500.000        3341.31     
  1509.62        500.000        3340.78     
  1506.41        500.000        3340.30     
  1503.21        500.000        3339.87     
  1500.00        500.000        3339.47     
  1496.79        500.000        3339.17     
  1493.59        500.000        3338.91     
  1490.38        500.000        3338.83     
  1487.18        500.000        3338.92     
  1483.97        500.000        3339.25     
  1480.77        500.000        3339.58     
  1477.56        500.000        3339.91     
  1474.36        500.000        3340.26     
  1471.15        500.000        3340.53     
  1467.95        500.000        3340.40     
  1464.74        500.000        3340.85     
  1461.54        500.000        3340.13     
  1458.33        500.000        3340.58     
  1455.13        500.000        3341.03     
  1451.92        500.000        3341.48     
  1448.72        500.000        3341.93     
  1445.51        500.000        3342.38     
  1442.31        500.000        3342.83     
  1439.10        500.000        3343.27     
  1435.90        500.000        3343.24     
  1432.69        500.000        3342.20     
  1429.49        500.000        3335.74     
  1426.28        500.000        3336.18     
  1423.08        500.000        3326.61     
  1419.87        500.000        3327.04     
  1416.67        500.000        3327.48     
  1413.46        500.000        3327.91     
  1410.26        500.000        3315.80     
  1407.05        500.000        3316.23     
  1403.85        500.000        3316.65     
  1400.64        500.000        3317.08     
  1397.44        500.000        3317.51     
  1394.23        500.000        3317.93     
  1391.03        500.000        3318.36     
  1387.82        500.000        3318.78     
  1384.62        500.000        3304.46     
  1381.41        500.000        3304.88     
  1378.21        500.000        3305.30     
  1375.00        500.000        3305.71     
  1371.79        500.000        3306.13     
  1368.59        500.000        3306.55     
  1365.38        500.000        3306.96     
  1362.18        500.000        3307.38     
  1358.97        500.000        3297.28     
  1355.77        500.000        3297.69     
  1352.56        500.000        3298.10     
  1349.36        500.000        3298.51     
  1346.15        500.000        3298.92     
  1342.95        500.000        3299.33     
  1339.74        500.000        3299.74     
  1336.54        500.000        3300.15     
  1333.33        500.000        3291.68     
  1330.13        500.000        3292.09     
  1326.92        500.000        3292.49     
  1323.72        500.000        3292.89     
  1320.51        500.000        3289.28     
  1317.31        500.000        3289.14     
  1314.10        500.000        3289.45     
  1310.90        500.000        3289.85     
  1307.69        500.000        3290.06     
  1304.49        500.000        3290.46     
  1301.28        500.000        3290.86     
  1298.08        500.000        3291.26     
  1294.87        500.000        3291.66     
  1291.67        500.000        3292.06     
  1288.46        500.000        3292.46     
  1285.26        500.000        3292.85     
  1282.05        500.000        3292.54     
  1278.85        500.000        3292.94     
  1275.64        500.000        3293.34     
  1272.44        500.000        3293.73     
  1269.23        500.000        3294.13     
  1266.03        500.000        3294.52     
  1262.82        500.000        3294.92     
  1259.62        500.000        3295.32     
  1256.41        500.000        3295.04     
  1253.21        500.000        3295.43     
  1250.00        500.000        3295.83     
  1246.79        500.000        3296.22     
  1243.59        500.000        3296.62     
  1240.38        500.000        3297.01     
  1237.18        500.000        3297.40     
  1233.97        500.000        3297.80     
  1230.77        500.000        3297.58     
  1227.56        500.000        3297.97     
  1224.36        500.000        3298.36     
  1221.15        500.000        3298.75     
  1217.95        500.000        3299.15     
  1214.74        500.000        3299.54     
  1211.54        500.000        3299.93     
  1208.33        500.000        3300.32     
  1205.13        500.000        3300.14     
  1201.92        500.000        3300.53     
  1198.72        500.000        3300.92     
  1195.51        500.000        3301.31     
  1192.31        500.000        3301.70     
  1189.10        500.000        3302.09     
  1185.90        500.000        3302.47     
  1182.69        500.000        3302.86     
  1179.49        500.000        3302.73     
  1176.28        500.000        3303.12     
  1173.08        500.000        3303.50     
  1169.87        500.000        3303.89     
  1166.67        500.000        3304.28     
  1163.46        500.000        3304.66     
  1160.26        500.000        3305.05     
  1157.05        500.000        3305.43     
  1153.85        500.000        3305.33     
  1150.64        500.000        3305.72     
  1147.44        500.000        3306.10     
  1144.23        500.000        3306.49     
  1141.03        500.000        3306.87     
  1137.82        500.000        3307.25     
  1134.62        500.000        3307.64     
  1131.41        500.000        3308.02     
  1128.21        500.000        3307.97     
  1125.00        500.000        3308.35     
  1121.79        500.000        3308.73     
  1118.59        500.000        3309.11     
  1115.38        500.000        3309.49     
  1112.18        500.000        3309.88     
  1108.97        500.000        3310.26     
  1105.77        500.000        3310.64     
  1102.56        500.000        3310.58     
  1099.36        500.000        3310.96     
  1096.15        500.000        3311.34     
  1092.95        500.000        3311.72     
  1089.74        500.000        3312.10     
  1086.54        500.000        3312.47     
  1083.33        500.000        3312.85     
  1080.13        500.000        3313.23     
  1076.92        500.000        3313.21     
  1073.72        500.000        3313.59     
  1070.51        500.000        3313.97     
  1067.31        500.000        3314.34     
  1064.10        500.000        3314.72     
  1060.90        500.000        3315.09     
  1057.69        500.000        3315.47     
  1054.49        500.000        3315.85     
  1051.28        500.000        3315.86     
  1048.08        500.000        3316.23     
  1044.87        500.000        3316.61     
  1041.67        500.000        3316.98     
  1038.46        500.000        3317.35     
  1035.26        500.000        3317.73     
  1032.05        500.000        3318.10     
  1028.85        500.000        3318.47     
  1025.64        500.000        3318.50     
  1022.44        500.000        3318.87     
  1019.23        500.000        3319.24     
  1016.03        500.000        3319.61     
  1012.82        500.000        3319.99     
  1009.62        500.000        3320.36     
  1006.41        500.000        3320.73     
  1003.21        500.000        3321.10     
  1000.00        500.000        3321.14     
