|6.6.6
Archiving\03_Data\fracLP/QFM_m1/TIS/TIS_6.tab                             
           1
T(K)    
  0.000000000000000E+000
  0.000000000000000E+000
           0
           3
T(K)           P(bar)         rho,kg/m3     
  2000.00        500.000        3584.12     
  1997.49        500.000        3584.50     
  1994.99        500.000        3584.87     
  1992.48        500.000        3585.25     
  1989.97        500.000        3585.62     
  1987.47        500.000        3586.00     
  1984.96        500.000        3586.37     
  1982.46        500.000        3586.75     
  1979.95        500.000        3587.12     
  1977.44        500.000        3587.50     
  1974.94        500.000        3587.87     
  1972.43        500.000        3588.25     
  1969.92        500.000        3588.62     
  1967.42        500.000        3589.00     
  1964.91        500.000        3589.37     
  1962.41        500.000        3589.75     
  1959.90        500.000        3590.12     
  1957.39        500.000        3590.49     
  1954.89        500.000        3590.87     
  1952.38        500.000        3591.24     
  1949.87        500.000        3591.61     
  1947.37        500.000        3591.99     
  1944.86        500.000        3592.36     
  1942.36        500.000        3592.73     
  1939.85        500.000        3593.11     
  1937.34        500.000        3593.48     
  1934.84        500.000        3593.85     
  1932.33        500.000        3594.22     
  1929.82        500.000        3594.60     
  1927.32        500.000        3594.97     
  1924.81        500.000        3595.34     
  1922.31        500.000        3595.71     
  1919.80        500.000        3596.08     
  1917.29        500.000        3596.46     
  1914.79        500.000        3596.83     
  1912.28        500.000        3597.20     
  1909.77        500.000        3597.57     
  1907.27        500.000        3597.94     
  1904.76        500.000        3598.31     
  1902.26        500.000        3598.68     
  1899.75        500.000        3599.05     
  1897.24        500.000        3599.42     
  1894.74        500.000        3599.79     
  1892.23        500.000        3600.17     
  1889.72        500.000        3600.54     
  1887.22        500.000        3600.91     
  1884.71        500.000        3601.28     
  1882.21        500.000        3601.65     
  1879.70        500.000        3602.02     
  1877.19        500.000        3602.39     
  1874.69        500.000        3602.75     
  1872.18        500.000        3603.12     
  1869.67        500.000        3603.49     
  1867.17        500.000        3603.86     
  1864.66        500.000        3604.23     
  1862.16        500.000        3604.60     
  1859.65        500.000        3604.97     
  1857.14        500.000        3605.34     
  1854.64        500.000        3605.71     
  1852.13        500.000        3606.07     
  1849.62        500.000        3606.44     
  1847.12        500.000        3606.81     
  1844.61        500.000        3607.18     
  1842.11        500.000        3607.55     
  1839.60        500.000        3607.91     
  1837.09        500.000        3608.28     
  1834.59        500.000        3608.65     
  1832.08        500.000        3609.02     
  1829.57        500.000        3609.38     
  1827.07        500.000        3609.75     
  1824.56        500.000        3610.12     
  1822.06        500.000        3610.49     
  1819.55        500.000        3610.85     
  1817.04        500.000        3611.22     
  1814.54        500.000        3611.59     
  1812.03        500.000        3611.95     
  1809.52        500.000        3612.32     
  1807.02        500.000        3612.68     
  1804.51        500.000        3613.05     
  1802.01        500.000        3613.42     
  1799.50        500.000        3613.78     
  1796.99        500.000        3614.15     
  1794.49        500.000        3614.51     
  1791.98        500.000        3614.88     
  1789.47        500.000        3615.24     
  1786.97        500.000        3615.61     
  1784.46        500.000        3615.97     
  1781.95        500.000        3616.34     
  1779.45        500.000        3616.70     
  1776.94        500.000        3617.07     
  1774.44        500.000        3617.43     
  1771.93        500.000        3617.80     
  1769.42        500.000        3618.16     
  1766.92        500.000        3618.53     
  1764.41        500.000        3618.89     
  1761.90        500.000        3619.25     
  1759.40        500.000        3619.62     
  1756.89        500.000        3619.98     
  1754.39        500.000        3620.34     
  1751.88        500.000        3620.71     
  1749.37        500.000        3621.07     
  1746.87        500.000        3621.43     
  1744.36        500.000        3621.80     
  1741.85        500.000        3622.16     
  1739.35        500.000        3622.52     
  1736.84        500.000        3622.89     
  1734.34        500.000        3623.25     
  1731.83        500.000        3623.61     
  1729.32        500.000        3623.97     
  1726.82        500.000        3624.33     
  1724.31        500.000        3624.70     
  1721.80        500.000        3625.06     
  1719.30        500.000        3625.42     
  1716.79        500.000        3625.78     
  1714.29        500.000        3626.14     
  1711.78        500.000        3575.33     
  1709.27        500.000        2943.12     
  1706.77        500.000        2943.66     
  1704.26        500.000        2944.21     
  1701.75        500.000        2944.75     
  1699.25        500.000        2945.30     
  1696.74        500.000        2945.84     
  1694.24        500.000        2946.38     
  1691.73        500.000        2946.93     
  1689.22        500.000        2947.47     
  1686.72        500.000        2948.01     
  1684.21        500.000        2948.56     
  1681.70        500.000        2949.10     
  1679.20        500.000        4513.66     
  1676.69        500.000        4515.36     
  1674.19        500.000        4514.29     
  1671.68        500.000        4513.85     
  1669.17        500.000        4514.05     
  1666.67        500.000        4514.91     
  1664.16        500.000        4515.91     
  1661.65        500.000        4515.97     
  1659.15        500.000        4516.26     
  1656.64        500.000        4517.47     
  1654.14        500.000        4517.90     
  1651.63        500.000        4517.53     
  1649.12        500.000        4518.49     
  1646.62        500.000        4518.61     
  1644.11        500.000        4519.19     
  1641.60        500.000        4518.11     
  1639.10        500.000        4519.34     
  1636.59        500.000        4519.32     
  1634.09        500.000        3459.03     
  1631.58        500.000        3388.02     
  1629.07        500.000        3389.81     
  1626.57        500.000        3391.86     
  1624.06        500.000        3395.87     
  1621.55        500.000        3396.40     
  1619.05        500.000        3399.22     
  1616.54        500.000        3400.92     
  1614.04        500.000        3403.29     
  1611.53        500.000        3405.08     
  1609.02        500.000        3408.07     
  1606.52        500.000        3409.67     
  1604.01        500.000        3411.82     
  1601.50        500.000        3414.13     
  1599.00        500.000        3414.75     
  1596.49        500.000        3418.35     
  1593.98        500.000        3422.41     
  1591.48        500.000        3423.20     
  1588.97        500.000        3424.91     
  1586.47        500.000        3427.59     
  1583.96        500.000        3429.93     
  1581.45        500.000        3431.21     
  1578.95        500.000        3433.79     
  1576.44        500.000        3436.20     
  1573.93        500.000        3437.99     
  1571.43        500.000        3440.19     
  1568.92        500.000        3443.51     
  1566.42        500.000        3444.93     
  1563.91        500.000        3446.98     
  1561.40        500.000        3449.06     
  1558.90        500.000        3450.19     
  1556.39        500.000        3453.20     
  1553.88        500.000        3455.79     
  1551.38        500.000        3457.39     
  1548.87        500.000        3459.61     
  1546.37        500.000        3461.68     
  1543.86        500.000        3464.34     
  1541.35        500.000        3467.12     
  1538.85        500.000        3468.01     
  1536.34        500.000        3470.45     
  1533.83        500.000        3471.77     
  1531.33        500.000        3473.28     
  1528.82        500.000        3476.49     
  1526.32        500.000        3478.08     
  1523.81        500.000        3481.48     
  1521.30        500.000        3484.38     
  1518.80        500.000        3488.16     
  1516.29        500.000        4546.35     
  1513.78        500.000        3485.69     
  1511.28        500.000        3492.50     
  1508.77        500.000        3494.86     
  1506.27        500.000        3364.58     
  1503.76        500.000        3314.45     
  1501.25        500.000        3315.64     
  1498.75        500.000        3316.69     
  1496.24        500.000        3316.99     
  1493.73        500.000        3317.52     
  1491.23        500.000        3318.94     
  1488.72        500.000        3320.55     
  1486.22        500.000        3321.38     
  1483.71        500.000        3322.87     
  1481.20        500.000        3324.96     
  1478.70        500.000        3328.27     
  1476.19        500.000        3326.93     
  1473.68        500.000        3333.38     
  1471.18        500.000        3313.59     
  1468.67        500.000        3315.96     
  1466.17        500.000        3311.98     
  1463.66        500.000        3295.14     
  1461.15        500.000        3298.07     
  1458.65        500.000        3300.67     
  1456.14        500.000        3302.76     
  1453.63        500.000        3305.59     
  1451.13        500.000        3308.49     
  1448.62        500.000        3310.82     
  1446.12        500.000        3313.76     
  1443.61        500.000        3316.15     
  1441.10        500.000        3319.02     
  1438.60        500.000        3321.96     
  1436.09        500.000        3324.72     
  1433.58        500.000        3327.37     
  1431.08        500.000        3330.33     
  1428.57        500.000        3332.63     
  1426.07        500.000        3335.80     
  1423.56        500.000        3338.58     
  1421.05        500.000        3341.37     
  1418.55        500.000        3343.91     
  1416.04        500.000        3347.25     
  1413.53        500.000        3350.12     
  1411.03        500.000        3352.95     
  1408.52        500.000        3355.95     
  1406.02        500.000        3358.89     
  1403.51        500.000        3361.72     
  1401.00        500.000        3364.75     
  1398.50        500.000        3367.65     
  1395.99        500.000        3238.54     
  1393.48        500.000        3179.95     
  1390.98        500.000        3183.47     
  1388.47        500.000        3187.33     
  1385.96        500.000        3190.92     
  1383.46        500.000        3194.78     
  1380.95        500.000        3212.73     
  1378.45        500.000        3229.10     
  1375.94        500.000        3234.26     
  1373.43        500.000        3239.22     
  1370.93        500.000        3244.66     
  1368.42        500.000        3249.75     
  1365.91        500.000        3254.91     
  1363.41        500.000        3259.78     
  1360.90        500.000        3265.17     
  1358.40        500.000        3270.46     
  1355.89        500.000        3275.52     
  1353.38        500.000        3280.66     
  1350.88        500.000        3285.64     
  1348.37        500.000        3290.29     
  1345.86        500.000        3294.29     
  1343.36        500.000        3297.48     
  1340.85        500.000        3303.78     
  1338.35        500.000        3308.85     
  1335.84        500.000        3309.75     
  1333.33        500.000        3314.81     
  1330.83        500.000        3319.81     
  1328.32        500.000        3335.01     
  1325.81        500.000        3376.03     
  1323.31        500.000        3381.23     
  1320.80        500.000        3385.30     
  1318.30        500.000        3388.13     
  1315.79        500.000        3390.79     
  1313.28        500.000        3393.22     
  1310.78        500.000        3395.36     
  1308.27        500.000        3397.12     
  1305.76        500.000        3398.87     
  1303.26        500.000        3400.72     
  1300.75        500.000        3402.59     
  1298.25        500.000        3404.37     
  1295.74        500.000        3405.54     
  1293.23        500.000        3406.94     
  1290.73        500.000        3408.32     
  1288.22        500.000        3409.83     
  1285.71        500.000        3411.12     
  1283.21        500.000        3412.24     
  1280.70        500.000        3412.91     
  1278.20        500.000        3414.30     
  1275.69        500.000        3415.27     
  1273.18        500.000        3416.11     
  1270.68        500.000        3417.06     
  1268.17        500.000        3417.68     
  1265.66        500.000        3418.23     
  1263.16        500.000        3418.94     
  1260.65        500.000        3419.64     
  1258.15        500.000        3120.18     
  1255.64        500.000        2890.68     
  1253.13        500.000        2890.99     
  1250.63        500.000        2892.80     
  1248.12        500.000        2894.40     
  1245.61        500.000        2895.84     
  1243.11        500.000        2896.53     
  1240.60        500.000        2897.14     
  1238.10        500.000        2897.55     
  1235.59        500.000        2897.43     
  1233.08        500.000        2897.40     
  1230.58        500.000        2897.10     
  1228.07        500.000        2896.51     
  1225.56        500.000        2895.59     
  1223.06        500.000        2894.58     
  1220.55        500.000        2891.38     
  1218.05        500.000        2890.33     
  1215.54        500.000        2889.18     
  1213.03        500.000        2700.53     
  1210.53        500.000        2698.27     
  1208.02        500.000        2698.39     
  1205.51        500.000        2694.81     
  1203.01        500.000        2696.31     
  1200.50        500.000        2695.00     
  1197.99        500.000        2688.55     
  1195.49        500.000        2686.40     
  1192.98        500.000        2678.43     
  1190.48        500.000        2680.01     
  1187.97        500.000        2662.83     
  1185.46        500.000        2641.58     
  1182.96        500.000        2641.48     
  1180.45        500.000        2641.51     
  1177.94        500.000        2641.58     
  1175.44        500.000        2641.37     
  1172.93        500.000        2641.66     
  1170.43        500.000        2641.72     
  1167.92        500.000        2641.76     
  1165.41        500.000        2641.81     
  1162.91        500.000        2641.83     
  1160.40        500.000        2641.73     
  1157.89        500.000        2641.84     
  1155.39        500.000        2642.02     
  1152.88        500.000        2641.91     
  1150.38        500.000        2642.13     
  1147.87        500.000        2642.21     
  1145.36        500.000        2642.36     
  1142.86        500.000        2642.39     
  1140.35        500.000        2642.48     
  1137.84        500.000        2642.57     
  1135.34        500.000        2642.48     
  1132.83        500.000        2642.67     
  1130.33        500.000        2642.76     
  1127.82        500.000        2642.75     
  1125.31        500.000        2642.87     
  1122.81        500.000        2642.98     
  1120.30        500.000        2643.09     
  1117.79        500.000        2643.20     
  1115.29        500.000        2643.33     
  1112.78        500.000        2643.42     
  1110.28        500.000        2643.52     
  1107.77        500.000        2643.60     
  1105.26        500.000        2643.68     
  1102.76        500.000        2643.77     
  1100.25        500.000        2643.87     
  1097.74        500.000        2643.95     
  1095.24        500.000        2644.09     
  1092.73        500.000        2644.13     
  1090.23        500.000        2644.22     
  1087.72        500.000        2644.31     
  1085.21        500.000        2644.40     
  1082.71        500.000        2644.49     
  1080.20        500.000        2644.58     
  1077.69        500.000        2644.56     
  1075.19        500.000        2644.67     
  1072.68        500.000        2644.75     
  1070.18        500.000        2644.86     
  1067.67        500.000        2644.97     
  1065.16        500.000        2645.08     
  1062.66        500.000        2645.19     
  1060.15        500.000        2645.30     
  1057.64        500.000        2645.41     
  1055.14        500.000        2645.52     
  1052.63        500.000        2645.62     
  1050.13        500.000        2645.68     
  1047.62        500.000        2645.78     
  1045.11        500.000        2645.87     
  1042.61        500.000        2645.96     
  1040.10        500.000        2646.06     
  1037.59        500.000        2646.15     
  1035.09        500.000        2646.25     
  1032.58        500.000        2646.34     
  1030.08        500.000        2646.43     
  1027.57        500.000        2646.53     
  1025.06        500.000        2646.62     
  1022.56        500.000        2646.71     
  1020.05        500.000        2646.81     
  1017.54        500.000        2646.88     
  1015.04        500.000        2646.92     
  1012.53        500.000        2647.00     
  1010.03        500.000        2647.10     
  1007.52        500.000        2647.21     
  1005.01        500.000        2647.32     
  1002.51        500.000        2647.43     
  1000.00        500.000        2647.53     
