|6.6.6
Archiving\03_Data\Deq/QFM/WD94/WD94_3.tab                                 
           1
T(K)    
  0.000000000000000E+000
  0.000000000000000E+000
           0
           9
T(K)           P(bar)         melt(TH)       Sp(TH)         O(HP)          Opx(TH)        Cpx(TH)        Cpx(TH)        an            
  2000.00        2500.00        100.000                 NaN            NaN            NaN            NaN            NaN            NaN
  1996.79        2500.00        100.000                 NaN            NaN            NaN            NaN            NaN            NaN
  1993.59        2500.00        100.000                 NaN            NaN            NaN            NaN            NaN            NaN
  1990.38        2500.00        100.000                 NaN            NaN            NaN            NaN            NaN            NaN
  1987.18        2500.00        100.000                 NaN            NaN            NaN            NaN            NaN            NaN
  1983.97        2500.00        100.000                 NaN            NaN            NaN            NaN            NaN            NaN
  1980.77        2500.00        100.000                 NaN            NaN            NaN            NaN            NaN            NaN
  1977.56        2500.00        100.000                 NaN            NaN            NaN            NaN            NaN            NaN
  1974.36        2500.00        100.000                 NaN            NaN            NaN            NaN            NaN            NaN
  1971.15        2500.00        100.000                 NaN            NaN            NaN            NaN            NaN            NaN
  1967.95        2500.00        100.000                 NaN            NaN            NaN            NaN            NaN            NaN
  1964.74        2500.00        100.000                 NaN            NaN            NaN            NaN            NaN            NaN
  1961.54        2500.00        100.000                 NaN            NaN            NaN            NaN            NaN            NaN
  1958.33        2500.00        100.000                 NaN            NaN            NaN            NaN            NaN            NaN
  1955.13        2500.00        100.000                 NaN            NaN            NaN            NaN            NaN            NaN
  1951.92        2500.00        100.000                 NaN            NaN            NaN            NaN            NaN            NaN
  1948.72        2500.00        100.000                 NaN            NaN            NaN            NaN            NaN            NaN
  1945.51        2500.00        100.000                 NaN            NaN            NaN            NaN            NaN            NaN
  1942.31        2500.00        100.000                 NaN            NaN            NaN            NaN            NaN            NaN
  1939.10        2500.00        100.000                 NaN            NaN            NaN            NaN            NaN            NaN
  1935.90        2500.00        100.000                 NaN            NaN            NaN            NaN            NaN            NaN
  1932.69        2500.00        100.000                 NaN            NaN            NaN            NaN            NaN            NaN
  1929.49        2500.00        100.000                 NaN            NaN            NaN            NaN            NaN            NaN
  1926.28        2500.00        100.000                 NaN            NaN            NaN            NaN            NaN            NaN
  1923.08        2500.00        100.000                 NaN            NaN            NaN            NaN            NaN            NaN
  1919.87        2500.00        100.000                 NaN            NaN            NaN            NaN            NaN            NaN
  1916.67        2500.00        100.000                 NaN            NaN            NaN            NaN            NaN            NaN
  1913.46        2500.00        100.000                 NaN            NaN            NaN            NaN            NaN            NaN
  1910.26        2500.00        100.000                 NaN            NaN            NaN            NaN            NaN            NaN
  1907.05        2500.00        99.8237       0.115776E-001  0.164688                 NaN            NaN            NaN            NaN
  1903.85        2500.00        99.0743       0.241423E-001  0.901522                 NaN            NaN            NaN            NaN
  1900.64        2500.00        98.3385       0.364673E-001   1.62502                 NaN            NaN            NaN            NaN
  1897.44        2500.00        97.6018       0.488074E-001   2.34939                 NaN            NaN            NaN            NaN
  1894.23        2500.00        96.9042       0.604911E-001   3.03535                 NaN            NaN            NaN            NaN
  1891.03        2500.00        96.2057       0.721886E-001   3.72210                 NaN            NaN            NaN            NaN
  1887.82        2500.00        95.5065       0.838999E-001   4.40965                 NaN            NaN            NaN            NaN
  1884.62        2500.00        94.8064       0.956249E-001   5.09798                 NaN            NaN            NaN            NaN
  1881.41        2500.00        94.1055       0.107363        5.78710                 NaN            NaN            NaN            NaN
  1878.21        2500.00        93.4039       0.119116        6.47700                 NaN            NaN            NaN            NaN
  1875.00        2500.00        92.7014       0.130882        7.16768                 NaN            NaN            NaN            NaN
  1871.79        2500.00        91.9982       0.142661        7.85913                 NaN            NaN            NaN            NaN
  1868.59        2500.00        91.3459       0.153339        8.50072                 NaN            NaN            NaN            NaN
  1865.38        2500.00        90.6930       0.164028        9.14299                 NaN            NaN            NaN            NaN
  1862.18        2500.00        90.0393       0.174729        9.78594                 NaN            NaN            NaN            NaN
  1858.97        2500.00        89.3850       0.185442        10.4296                 NaN            NaN            NaN            NaN
  1855.77        2500.00        88.7300       0.196166        11.0739                 NaN            NaN            NaN            NaN
  1852.56        2500.00        88.0742       0.206902        11.7189                 NaN            NaN            NaN            NaN
  1849.36        2500.00        87.4179       0.217649        12.3645                 NaN            NaN            NaN            NaN
  1846.15        2500.00        86.7608       0.228407        13.0108                 NaN            NaN            NaN            NaN
  1842.95        2500.00        86.1351       0.238365        13.6266                 NaN            NaN            NaN            NaN
  1839.74        2500.00        85.5088       0.248334        14.2429                 NaN            NaN            NaN            NaN
  1836.54        2500.00        84.8818       0.258313        14.8599                 NaN            NaN            NaN            NaN
  1833.33        2500.00        84.2542       0.268301        15.4775                 NaN            NaN            NaN            NaN
  1830.13        2500.00        83.6261       0.278300        16.0956                 NaN            NaN            NaN            NaN
  1826.92        2500.00        82.9973       0.288309        16.7144                 NaN            NaN            NaN            NaN
  1823.72        2500.00        82.3679       0.298327        17.3338                 NaN            NaN            NaN            NaN
  1820.51        2500.00        81.7379       0.308356        17.9538                 NaN            NaN            NaN            NaN
  1817.31        2500.00        81.1320       0.317536        18.5505                 NaN            NaN            NaN            NaN
  1814.10        2500.00        80.5256       0.326724        19.1477                 NaN            NaN            NaN            NaN
  1810.90        2500.00        79.9186       0.335921        19.7455                 NaN            NaN            NaN            NaN
  1807.69        2500.00        79.3111       0.345127        20.3438                 NaN            NaN            NaN            NaN
  1804.49        2500.00        78.7030       0.354341        20.9427                 NaN            NaN            NaN            NaN
  1801.28        2500.00        78.0944       0.363564        21.5421                 NaN            NaN            NaN            NaN
  1798.08        2500.00        77.4852       0.372795        22.1420                 NaN            NaN            NaN            NaN
  1794.87        2500.00        76.8755       0.382035        22.7425                 NaN            NaN            NaN            NaN
  1791.67        2500.00        76.2820       0.390509        23.3275                 NaN            NaN            NaN            NaN
  1788.46        2500.00        75.6880       0.398992        23.9130                 NaN            NaN            NaN            NaN
  1785.26        2500.00        75.0935       0.407481        24.4990                 NaN            NaN            NaN            NaN
  1782.05        2500.00        74.4985       0.415978        25.0855                 NaN            NaN            NaN            NaN
  1778.85        2500.00        73.9030       0.424482        25.6725                 NaN            NaN            NaN            NaN
  1775.64        2500.00        73.3070       0.432994        26.2600                 NaN            NaN            NaN            NaN
  1772.44        2500.00        72.7105       0.441513        26.8479                 NaN            NaN            NaN            NaN
  1769.23        2500.00        72.1136       0.450039        27.4364                 NaN            NaN            NaN            NaN
  1766.03        2500.00        71.5288       0.457978        28.0132                 NaN            NaN            NaN            NaN
  1762.82        2500.00        70.9436       0.465923        28.5905                 NaN            NaN            NaN            NaN
  1759.62        2500.00        70.3579       0.473875        29.1682                 NaN            NaN            NaN            NaN
  1756.41        2500.00        69.7718       0.481834        29.7464                 NaN            NaN            NaN            NaN
  1753.21        2500.00        69.1852       0.489798        30.3250                 NaN            NaN            NaN            NaN
  1750.00        2500.00        68.5981       0.497769        30.9041                 NaN            NaN            NaN            NaN
  1746.79        2500.00        68.0106       0.505746        31.4836                 NaN            NaN            NaN            NaN
  1743.59        2500.00        67.4227       0.513729        32.0636                 NaN            NaN            NaN            NaN
  1740.38        2500.00        66.8545       0.521082        32.6244                 NaN            NaN            NaN            NaN
  1737.18        2500.00        66.2860       0.528439        33.1856                 NaN            NaN            NaN            NaN
  1733.97        2500.00        65.7170       0.535802        33.7472                 NaN            NaN            NaN            NaN
  1730.77        2500.00        65.1476       0.543170        34.3092                 NaN            NaN            NaN            NaN
  1727.56        2500.00        64.5779       0.550543        34.8716                 NaN            NaN            NaN            NaN
  1724.36        2500.00        64.0077       0.557921        35.4344                 NaN            NaN            NaN            NaN
  1721.15        2500.00        63.4372       0.565304        35.9975                 NaN            NaN            NaN            NaN
  1717.95        2500.00        62.8663       0.572692        36.5610                 NaN            NaN            NaN            NaN
  1714.74        2500.00        62.3162       0.579509        37.1043                 NaN            NaN            NaN            NaN
  1711.54        2500.00        61.7657       0.586331        37.6479                 NaN            NaN            NaN            NaN
  1708.33        2500.00        61.2149       0.593157        38.1919                 NaN            NaN            NaN            NaN
  1705.13        2500.00        60.6638       0.599987        38.7362                 NaN            NaN            NaN            NaN
  1701.92        2500.00        60.1124       0.606821        39.2808                 NaN            NaN            NaN            NaN
  1698.72        2500.00        59.5606       0.613659        39.8257                 NaN            NaN            NaN            NaN
  1695.51        2500.00        59.0086       0.620501        40.3709                 NaN            NaN            NaN            NaN
  1692.31        2500.00        58.4562       0.627346        40.9165                 NaN            NaN            NaN            NaN
  1689.10        2500.00        57.9375       0.633801        41.4287                 NaN            NaN            NaN            NaN
  1685.90        2500.00        57.4186       0.640259        41.9411                 NaN            NaN            NaN            NaN
  1682.69        2500.00        56.8995       0.646721        42.4538                 NaN            NaN            NaN            NaN
  1679.49        2500.00        56.3801       0.653185        42.9667                 NaN            NaN            NaN            NaN
  1676.28        2500.00        55.8604       0.659652        43.4799                 NaN            NaN            NaN            NaN
  1673.08        2500.00        55.3405       0.666123        43.9933                 NaN            NaN            NaN            NaN
  1669.87        2500.00        54.8204       0.672596        44.5070                 NaN            NaN            NaN            NaN
  1666.67        2500.00        54.3001       0.679073        45.0209                 NaN            NaN            NaN            NaN
  1663.46        2500.00        53.7948       0.685876        45.5193                 NaN            NaN            NaN            NaN
  1660.26        2500.00        53.2893       0.692682        46.0180                 NaN            NaN            NaN            NaN
  1657.05        2500.00        54.0808       0.669973        45.2492                 NaN            NaN            NaN            NaN
  1653.85        2500.00        51.7045       0.698961        46.8468       0.749800                 NaN            NaN            NaN
  1650.64        2500.00        50.3562       0.696991        47.1068        1.83997                 NaN            NaN            NaN
  1647.44        2500.00        49.0042       0.695013        47.3675        2.93332                 NaN            NaN            NaN
  1644.23        2500.00        47.6483       0.693028        47.6288        4.02985                 NaN            NaN            NaN
  1641.03        2500.00        46.2886       0.691036        47.8908        5.12955                 NaN            NaN            NaN
  1637.82        2500.00        45.2340       0.688153        48.0898        5.98799                 NaN            NaN            NaN
  1634.62        2500.00        44.1771       0.685262        48.2893        6.84839                 NaN            NaN            NaN
  1631.41        2500.00        43.1178       0.682364        48.4890        7.71075                 NaN            NaN            NaN
  1628.21        2500.00        42.0563       0.679457        48.6892        8.57507                 NaN            NaN            NaN
  1625.00        2500.00        40.9924       0.676543        48.8897        9.44136                 NaN            NaN            NaN
  1621.79        2500.00        39.9262       0.673621        49.0906        10.3096                 NaN            NaN            NaN
  1618.59        2500.00        38.8577       0.670690        49.2918        11.1798                 NaN            NaN            NaN
  1615.38        2500.00        37.7868       0.667752        49.4934        12.0520                 NaN            NaN            NaN
  1612.18        2500.00        36.9864       0.663781        49.6370        12.7129                 NaN            NaN            NaN
  1608.97        2500.00        36.1846       0.659803        49.7808        13.3748                 NaN            NaN            NaN
  1605.77        2500.00        35.3815       0.655817        49.9248        14.0379                 NaN            NaN            NaN
  1602.56        2500.00        34.5771       0.651823        50.0690        14.7021                 NaN            NaN            NaN
  1599.36        2500.00        33.7713       0.647821        50.2133        15.3675                 NaN            NaN            NaN
  1596.15        2500.00        32.9643       0.643811        50.3578        16.0340                 NaN            NaN            NaN
  1592.95        2500.00        32.1560       0.639793        50.5026        16.7017                 NaN            NaN            NaN
  1589.74        2500.00        31.3463       0.635768        50.6474        17.3705                 NaN            NaN            NaN
  1586.54        2500.00        30.7031       0.630663        50.7544        17.9118                 NaN            NaN            NaN
  1583.33        2500.00        30.0590       0.625550        50.8615        18.4539                 NaN            NaN            NaN
  1580.13        2500.00        29.4141       0.620430        50.9687        18.9968                 NaN            NaN            NaN
  1576.92        2500.00        28.7684       0.615301        51.0760        19.5404                 NaN            NaN            NaN
  1573.72        2500.00        28.1218       0.610164        51.1834        20.0847                 NaN            NaN            NaN
  1570.51        2500.00        27.4744       0.605020        51.2908        20.6298                 NaN            NaN            NaN
  1567.31        2500.00        26.8261       0.599868        51.3984        21.1756                 NaN            NaN            NaN
  1564.10        2500.00        26.1771       0.594707        51.5061        21.7222                 NaN            NaN            NaN
  1560.90        2500.00        25.6285       0.588916        51.5901        22.1924                 NaN            NaN            NaN
  1557.69        2500.00        25.0794       0.583117        51.6743        22.6632                 NaN            NaN            NaN
  1554.49        2500.00        24.5297       0.577311        51.7585        23.1346                 NaN            NaN            NaN
  1551.28        2500.00        23.9793       0.571498        51.8427        23.6065                 NaN            NaN            NaN
  1548.08        2500.00        23.4284       0.565677        51.9270        24.0789                 NaN            NaN            NaN
  1544.87        2500.00        22.8768       0.559849        52.0114        24.5519                 NaN            NaN            NaN
  1541.67        2500.00        22.3247       0.554013        52.0958        25.0255                 NaN            NaN            NaN
  1538.46        2500.00        21.7719       0.548170        52.1803        25.4996                 NaN            NaN            NaN
