|6.6.6
Archiving\03_Data\eqfracLP/QFM_m1.25/WD94/WD94_6.tab                      
           1
T(K)    
  0.000000000000000E+000
  0.000000000000000E+000
           0
           3
T(K)           P(bar)         rho,kg/m3     
  1567.31        500.000        3325.61     
  1565.89        500.000        3250.30     
  1564.47        500.000        3251.67     
  1563.04        500.000        3251.23     
  1561.62        500.000        3251.77     
  1560.20        500.000        3252.16     
  1558.78        500.000        3252.02     
  1557.36        500.000        3252.06     
  1555.94        500.000        3253.89     
  1554.51        500.000        3253.92     
  1553.09        500.000        3254.01     
  1551.67        500.000        3254.49     
  1550.25        500.000        3255.71     
  1548.83        500.000        3255.61     
  1547.40        500.000        3255.53     
  1545.98        500.000        3257.57     
  1544.56        500.000        3257.41     
  1543.14        500.000        3257.64     
  1541.72        500.000        3255.45     
  1540.30        500.000        3258.42     
  1538.87        500.000        3258.57     
  1537.45        500.000        3259.45     
  1536.03        500.000        3259.12     
  1534.61        500.000        3260.41     
  1533.19        500.000        3260.63     
  1531.76        500.000        3261.10     
  1530.34        500.000        3261.43     
  1528.92        500.000        3261.45     
  1527.50        500.000        3262.41     
  1526.08        500.000        3262.67     
  1524.66        500.000        3263.23     
  1523.23        500.000        3261.76     
  1521.81        500.000        3263.65     
  1520.39        500.000        3264.75     
  1518.97        500.000        3267.08     
  1517.55        500.000        2790.44     
  1516.12        500.000        3265.35     
  1514.70        500.000        3266.05     
  1513.28        500.000        3275.41     
  1511.86        500.000        3264.62     
  1510.44        500.000        3266.28     
  1509.01        500.000        3270.44     
  1507.59        500.000        3266.35     
  1506.17        500.000        3273.89     
  1504.75        500.000        3267.52     
  1503.33        500.000        3267.93     
  1501.91        500.000        3268.36     
  1500.48        500.000        3269.45     
  1499.06        500.000        3269.65     
  1497.64        500.000        3271.06     
  1496.22        500.000        3276.68     
  1494.80        500.000        3271.21     
  1493.37        500.000        3271.46     
  1491.95        500.000        3295.58     
  1490.53        500.000        3273.16     
  1489.11        500.000        3273.78     
  1487.69        500.000        3273.21     
  1486.27        500.000        3274.60     
  1484.84        500.000        3275.35     
  1483.42        500.000        3275.72     
  1482.00        500.000        3275.86     
  1480.58        500.000        3276.96     
  1479.16        500.000        3277.85     
  1477.73        500.000        3278.14     
  1476.31        500.000        3278.38     
  1474.89        500.000        3278.99     
  1473.47        500.000        3279.95     
  1472.05        500.000        3279.45     
  1470.63        500.000        3280.53     
  1469.20        500.000        3281.57     
  1467.78        500.000        3281.80     
  1466.36        500.000        3282.65     
  1464.94        500.000        3283.07     
  1463.52        500.000        3284.02     
  1462.09        500.000        3284.48     
  1460.67        500.000        3284.68     
  1459.25        500.000        3285.18     
  1457.83        500.000        3286.23     
  1456.41        500.000        3271.63     
  1454.99        500.000        3272.50     
  1453.56        500.000        3272.66     
  1452.14        500.000        3273.93     
  1450.72        500.000        3274.85     
  1449.30        500.000        3275.24     
  1447.88        500.000        3276.15     
  1446.45        500.000        3277.33     
  1445.03        500.000        3276.95     
  1443.61        500.000        3268.42     
  1442.19        500.000        3268.93     
  1440.77        500.000        3251.85     
  1439.35        500.000        3271.01     
  1437.92        500.000        3264.88     
  1436.50        500.000        3266.05     
  1435.08        500.000        3267.21     
  1433.66        500.000        3268.09     
  1432.24        500.000        3269.12     
  1430.81        500.000        3270.36     
  1429.39        500.000        3272.32     
  1427.97        500.000        3272.75     
  1426.55        500.000        3273.64     
  1425.13        500.000        3274.89     
  1423.71        500.000        3275.76     
  1422.28        500.000        3277.21     
  1420.86        500.000        3277.89     
  1419.44        500.000        3279.42     
  1418.02        500.000        3280.54     
  1416.60        500.000        3281.41     
  1415.17        500.000        3282.65     
  1413.75        500.000        3283.98     
  1412.33        500.000        3209.61     
  1410.91        500.000        3106.02     
  1409.49        500.000        3107.11     
  1408.07        500.000        3108.62     
  1406.64        500.000        3109.99     
  1405.22        500.000        3111.19     
  1403.80        500.000        3113.22     
  1402.38        500.000        3113.75     
  1400.96        500.000        3115.12     
  1399.53        500.000        3116.33     
  1398.11        500.000        3117.63     
  1396.69        500.000        3119.08     
  1395.27        500.000        3120.20     
  1393.85        500.000        3121.61     
  1392.42        500.000        3122.97     
  1391.00        500.000        3124.23     
  1389.58        500.000        3125.56     
  1388.16        500.000        3126.81     
  1386.74        500.000        3128.06     
  1385.32        500.000        3129.40     
  1383.89        500.000        3130.40     
  1382.47        500.000        3132.08     
  1381.05        500.000        3133.44     
  1379.63        500.000        3134.42     
  1378.21        500.000        3135.51     
  1376.78        500.000        3137.21     
  1375.36        500.000        3138.39     
  1373.94        500.000        3139.78     
  1372.52        500.000        3141.27     
  1371.10        500.000        3142.21     
  1369.68        500.000        3152.95     
  1368.25        500.000        3160.09     
  1366.83        500.000        3161.84     
  1365.41        500.000        3164.43     
  1363.99        500.000        3165.45     
  1362.57        500.000        3166.92     
  1361.14        500.000        3168.75     
  1359.72        500.000        3170.51     
  1358.30        500.000        3172.36     
  1356.88        500.000        3174.00     
  1355.46        500.000        3175.82     
  1354.04        500.000        3177.56     
  1352.61        500.000        3179.52     
  1351.19        500.000        3181.40     
  1349.77        500.000        3183.20     
  1348.35        500.000        3184.91     
  1346.93        500.000        3186.00     
  1345.50        500.000        3188.60     
  1344.08        500.000        3190.58     
  1342.66        500.000        3191.89     
  1341.24        500.000        3193.75     
  1339.82        500.000        3195.75     
  1338.40        500.000        3197.31     
  1336.97        500.000        3199.35     
  1335.55        500.000        3201.05     
  1334.13        500.000        3202.78     
  1332.71        500.000        3204.50     
  1331.29        500.000        3206.64     
  1329.86        500.000        3208.12     
  1328.44        500.000        3209.95     
  1327.02        500.000        3211.63     
  1325.60        500.000        3215.51     
  1324.18        500.000        3212.33     
  1322.76        500.000        3217.05     
  1321.33        500.000        3217.98     
  1319.91        500.000        3220.90     
  1318.49        500.000        3221.88     
  1317.07        500.000        3223.85     
  1315.65        500.000        3225.07     
  1314.22        500.000        3226.69     
  1312.80        500.000        3228.43     
  1311.38        500.000        3229.99     
  1309.96        500.000        3231.78     
  1308.54        500.000        3233.05     
  1307.12        500.000        3234.57     
  1305.69        500.000        3236.20     
  1304.27        500.000        3237.28     
  1302.85        500.000        3239.10     
  1301.43        500.000        3240.44     
  1300.01        500.000        3241.69     
  1298.58        500.000        3264.06     
  1297.16        500.000        3205.28     
  1295.74        500.000        3232.22     
  1294.32        500.000        3246.90     
  1292.90        500.000        3248.02     
  1291.48        500.000        3248.87     
  1290.05        500.000        3251.09     
  1288.63        500.000        3251.63     
  1287.21        500.000        3252.63     
  1285.79        500.000        3253.73     
  1284.37        500.000        3254.78     
  1282.94        500.000        3255.86     
  1281.52        500.000        2785.49     
  1280.10        500.000        2785.22     
  1278.68        500.000        2788.45     
  1277.26        500.000        2791.76     
  1275.83        500.000        2794.78     
  1274.41        500.000        2798.08     
  1272.99        500.000        2800.98     
  1271.57        500.000        2803.91     
  1270.15        500.000        2806.77     
  1268.73        500.000        2809.72     
  1267.30        500.000        2812.38     
  1265.88        500.000        2815.16     
  1264.46        500.000        2817.95     
  1263.04        500.000        2820.49     
  1261.62        500.000        2823.17     
  1260.19        500.000        2825.76     
  1258.77        500.000        2828.38     
  1257.35        500.000        2830.69     
  1255.93        500.000        2834.02     
  1254.51        500.000        2835.93     
  1253.09        500.000        2838.08     
  1251.66        500.000        2840.62     
  1250.24        500.000        2842.87     
  1248.82        500.000        2845.19     
  1247.40        500.000        2847.23     
  1245.98        500.000        2849.49     
  1244.55        500.000        2853.40     
  1243.13        500.000        2862.76     
  1241.71        500.000        2863.95     
  1240.29        500.000        2865.10     
  1238.87        500.000        2870.89     
  1237.45        500.000        2874.19     
  1236.02        500.000        2874.24     
  1234.60        500.000        2874.46     
  1233.18        500.000        2874.47     
  1231.76        500.000        2874.35     
  1230.34        500.000        2874.27     
  1228.91        500.000        2874.15     
  1227.49        500.000        2873.46     
  1226.07        500.000        2873.95     
  1224.65        500.000        2873.03     
  1223.23        500.000        2881.47     
  1221.81        500.000        2844.60     
  1220.38        500.000        3006.28     
  1218.96        500.000        2887.87     
  1217.54        500.000        2741.47     
  1216.12        500.000        3007.46     
  1214.70        500.000        2886.35     
  1213.27        500.000        2871.64     
  1211.85        500.000        2864.53     
  1210.43        500.000        2798.34     
  1209.01        500.000        3055.17     
  1207.59        500.000        2848.84     
  1206.17        500.000        2997.28     
  1204.74        500.000        2795.29     
  1203.32        500.000        2857.51     
  1201.90        500.000        3922.40     
  1200.48        500.000        2573.86     
  1199.06        500.000        2651.48     
  1197.63        500.000        2686.64     
  1196.21        500.000        2685.61     
  1194.79        500.000        2676.52     
  1193.37        500.000        2678.60     
  1191.95        500.000        2674.20     
  1190.53        500.000        2523.41     
  1189.10        500.000        2418.58     
  1187.68        500.000        2418.67     
  1186.26        500.000        2643.16     
  1184.84        500.000        2643.34     
  1183.42        500.000        2643.34     
  1181.99        500.000        2643.36     
  1180.57        500.000        2643.42     
  1179.15        500.000        2643.49     
  1177.73        500.000        2643.55     
  1176.31        500.000        2643.59     
  1174.89        500.000        2643.64     
  1173.46        500.000        2643.67     
  1172.04        500.000        2643.73     
  1170.62        500.000        2643.84     
  1169.20        500.000        2643.90     
  1167.78        500.000        2639.93     
  1166.35        500.000        2639.93     
  1164.93        500.000        2639.99     
  1163.51        500.000        2640.05     
  1162.09        500.000        2640.12     
  1160.67        500.000        2640.18     
  1159.24        500.000        2640.24     
  1157.82        500.000        2640.31     
  1156.40        500.000        2640.37     
  1154.98        500.000        2640.04     
  1153.56        500.000        2640.10     
  1152.14        500.000        2640.17     
  1150.71        500.000        2640.23     
  1149.29        500.000        2640.29     
  1147.87        500.000        2640.36     
  1146.45        500.000        2640.30     
  1145.03        500.000        2640.34     
  1143.60        500.000        2640.54     
  1142.18        500.000        2640.42     
  1140.76        500.000        2640.44     
  1139.34        500.000        2640.50     
  1137.92        500.000        2640.54     
  1136.50        500.000        2640.58     
  1135.07        500.000        2640.58     
  1133.65        500.000        2640.60     
  1132.23        500.000        2641.05     
  1130.81        500.000        2640.74     
  1129.39        500.000        2640.71     
  1127.96        500.000        2640.82     
  1126.54        500.000        2640.80     
  1125.12        500.000        2640.84     
  1123.70        500.000        2640.89     
  1122.28        500.000        2640.92     
  1120.86        500.000        2640.96     
  1119.43        500.000        2641.01     
  1118.01        500.000        2641.05     
  1116.59        500.000        2641.09     
  1115.17        500.000        2641.14     
  1113.75        500.000        2641.18     
  1112.32        500.000        2641.22     
  1110.90        500.000        2641.99     
  1109.48        500.000        2641.31     
  1108.06        500.000        2641.40     
  1106.64        500.000        2641.44     
  1105.22        500.000        2641.49     
  1103.79        500.000        2641.47     
  1102.37        500.000        2641.54     
  1100.95        500.000        2641.62     
  1099.53        500.000        2641.65     
  1098.11        500.000        2641.68     
  1096.68        500.000        2641.76     
  1095.26        500.000        2641.77     
  1093.84        500.000        2641.83     
  1092.42        500.000        2641.87     
  1091.00        500.000        2641.93     
  1089.58        500.000        2642.01     
  1088.15        500.000        2642.07     
  1086.73        500.000        2642.07     
  1085.31        500.000        2642.12     
  1083.89        500.000        2642.18     
  1082.47        500.000        2642.24     
  1081.04        500.000        2642.26     
  1079.62        500.000        2642.33     
  1078.20        500.000        2642.39     
  1076.78        500.000        2642.44     
  1075.36        500.000        2642.49     
  1073.94        500.000        2642.54     
  1072.51        500.000        2642.51     
  1071.09        500.000        2642.57     
  1069.67        500.000        2642.62     
  1068.25        500.000        2642.68     
  1066.83        500.000        2642.73     
  1065.40        500.000        2642.79     
  1063.98        500.000        2642.84     
  1062.56        500.000        2642.90     
  1061.14        500.000        2643.01     
  1059.72        500.000        2643.06     
  1058.30        500.000        2643.11     
  1056.87        500.000        2643.16     
  1055.45        500.000        2643.21     
  1054.03        500.000        2643.27     
  1052.61        500.000        2643.32     
  1051.19        500.000        2643.37     
  1049.76        500.000        2643.42     
  1048.34        500.000        2643.47     
  1046.92        500.000        2643.53     
  1045.50        500.000        2643.57     
  1044.08        500.000        2643.63     
  1042.65        500.000        2643.68     
  1041.23        500.000        2643.73     
  1039.81        500.000        2643.79     
  1038.39        500.000        2643.84     
  1036.97        500.000        2643.89     
  1035.55        500.000        2643.94     
  1034.12        500.000        2644.00     
  1032.70        500.000        2644.05     
  1031.28        500.000        2644.10     
  1029.86        500.000        2644.15     
  1028.44        500.000        2644.21     
  1027.01        500.000        2644.26     
  1025.59        500.000        2644.31     
  1024.17        500.000        2644.37     
  1022.75        500.000        2644.42     
  1021.33        500.000        2644.47     
  1019.91        500.000        2644.52     
  1018.48        500.000        2644.58     
  1017.06        500.000        2644.62     
  1015.64        500.000        2644.67     
  1014.22        500.000        2644.73     
  1012.80        500.000        2644.78     
  1011.37        500.000        2644.83     
  1009.95        500.000        2644.89     
  1008.53        500.000        2644.94     
  1007.11        500.000        2644.99     
  1005.69        500.000        2645.04     
  1004.27        500.000        2645.10     
  1002.84        500.000        2645.14     
  1001.42        500.000        2645.21     
  1000.00        500.000        2645.26     
