|6.6.6
Archiving\03_Data\DeqLP/QFM_m1.75/WD94/WD94_6.tab                         
           1
T(K)    
  0.000000000000000E+000
  0.000000000000000E+000
           0
           3
T(K)           P(bar)         rho,kg/m3     
  2000.00        500.000        2938.16     
  1996.79        500.000        2938.93     
  1993.59        500.000        2939.70     
  1990.38        500.000        2940.48     
  1987.18        500.000        2941.25     
  1983.97        500.000        2942.02     
  1980.77        500.000        2942.80     
  1977.56        500.000        2943.57     
  1974.36        500.000        2944.35     
  1971.15        500.000        2945.12     
  1967.95        500.000        2945.89     
  1964.74        500.000        2946.67     
  1961.54        500.000        2947.44     
  1958.33        500.000        2948.22     
  1955.13        500.000        2948.99     
  1951.92        500.000        2949.77     
  1948.72        500.000        2950.54     
  1945.51        500.000        2951.31     
  1942.31        500.000        2952.09     
  1939.10        500.000        2952.86     
  1935.90        500.000        2953.64     
  1932.69        500.000        2954.41     
  1929.49        500.000        2955.19     
  1926.28        500.000        2955.96     
  1923.08        500.000        2956.74     
  1919.87        500.000        2957.51     
  1916.67        500.000        2958.29     
  1913.46        500.000        2959.06     
  1910.26        500.000        2959.84     
  1907.05        500.000        3162.57     
  1903.85        500.000        3164.99     
  1900.64        500.000        3167.82     
  1897.44        500.000        3169.35     
  1894.23        500.000        3172.72     
  1891.03        500.000        3175.08     
  1887.82        500.000        3176.89     
  1884.62        500.000        3178.35     
  1881.41        500.000        3180.10     
  1878.21        500.000        3181.92     
  1875.00        500.000        3184.88     
  1871.79        500.000        3187.43     
  1868.59        500.000        3192.18     
  1865.38        500.000        3196.35     
  1862.18        500.000        3200.04     
  1858.97        500.000        3203.34     
  1855.77        500.000        3206.33     
  1852.56        500.000        3209.04     
  1849.36        500.000        3211.53     
  1846.15        500.000        3213.82     
  1842.95        500.000        3217.04     
  1839.74        500.000        3220.04     
  1836.54        500.000        3222.83     
  1833.33        500.000        3225.45     
  1830.13        500.000        3227.90     
  1826.92        500.000        3230.22     
  1823.72        500.000        3232.41     
  1820.51        500.000        3234.48     
  1817.31        500.000        3237.50     
  1814.10        500.000        3240.36     
  1810.90        500.000        3243.08     
  1807.69        500.000        3245.68     
  1804.49        500.000        3248.15     
  1801.28        500.000        3250.52     
  1798.08        500.000        3252.78     
  1794.87        500.000        3254.96     
  1791.67        500.000        3257.25     
  1788.46        500.000        3259.45     
  1785.26        500.000        3261.58     
  1782.05        500.000        3263.63     
  1778.85        500.000        3265.62     
  1775.64        500.000        3267.54     
  1772.44        500.000        3269.41     
  1769.23        500.000        3271.22     
  1766.03        500.000        3273.49     
  1762.82        500.000        3275.70     
  1759.62        500.000        3277.84     
  1756.41        500.000        3279.92     
  1753.21        500.000        3281.94     
  1750.00        500.000        3283.91     
  1746.79        500.000        3285.82     
  1743.59        500.000        3287.69     
  1740.38        500.000        3289.71     
  1737.18        500.000        3291.68     
  1733.97        500.000        3293.61     
  1730.77        500.000        3295.49     
  1727.56        500.000        3297.33     
  1724.36        500.000        3299.13     
  1721.15        500.000        3300.88     
  1717.95        500.000        3302.60     
  1714.74        500.000        3304.35     
  1711.54        500.000        3306.05     
  1708.33        500.000        3307.73     
  1705.13        500.000        3309.37     
  1701.92        500.000        3310.99     
  1698.72        500.000        3312.57     
  1695.51        500.000        3314.13     
  1692.31        500.000        3315.66     
  1689.10        500.000        3317.11     
  1685.90        500.000        3318.55     
  1682.69        500.000        3319.96     
  1679.49        500.000        3321.35     
  1676.28        500.000        3322.72     
  1673.08        500.000        3324.07     
  1669.87        500.000        3325.40     
  1666.67        500.000        3326.71     
  1663.46        500.000        3327.99     
  1660.26        500.000        3329.25     
  1657.05        500.000        3330.49     
  1653.85        500.000        3331.72     
  1650.64        500.000        3332.93     
  1647.44        500.000        3334.13     
  1644.23        500.000        3335.32     
  1641.03        500.000        3336.50     
  1637.82        500.000        3337.59     
  1634.62        500.000        3338.68     
  1631.41        500.000        3339.76     
  1628.21        500.000        3340.82     
  1625.00        500.000        3341.80     
  1621.79        500.000        3342.77     
  1618.59        500.000        3344.08     
  1615.38        500.000        3343.13     
  1612.18        500.000        3342.45     
  1608.97        500.000        3341.80     
  1605.77        500.000        3341.19     
  1602.56        500.000        3340.62     
  1599.36        500.000        3340.07     
  1596.15        500.000        3339.55     
  1592.95        500.000        3339.06     
  1589.74        500.000        3338.60     
  1586.54        500.000        3338.46     
  1583.33        500.000        3338.33     
  1580.13        500.000        3338.22     
  1576.92        500.000        3338.11     
  1573.72        500.000        3338.02     
  1570.51        500.000        3337.94     
  1567.31        500.000        3337.87     
  1564.10        500.000        3337.81     
  1560.90        500.000        3337.88     
  1557.69        500.000        3337.97     
  1554.49        500.000        3338.06     
  1551.28        500.000        3338.16     
  1548.08        500.000        3338.26     
  1544.87        500.000        3338.37     
  1541.67        500.000        3338.48     
  1538.46        500.000        3338.60     
  1535.26        500.000        3338.76     
  1532.05        500.000        3338.93     
  1528.85        500.000        3339.10     
  1525.64        500.000        3339.27     
  1522.44        500.000        3339.45     
  1519.23        500.000        3339.63     
  1516.03        500.000        3339.82     
  1512.82        500.000        3340.00     
  1509.62        500.000        3340.24     
  1506.41        500.000        3340.47     
  1503.21        500.000        3340.71     
  1500.00        500.000        3340.95     
  1496.79        500.000        3341.19     
  1493.59        500.000        3341.44     
  1490.38        500.000        3341.69     
  1487.18        500.000        3341.94     
  1483.97        500.000        3342.13     
  1480.77        500.000        3342.32     
  1477.56        500.000        3342.52     
  1474.36        500.000        3342.72     
  1471.15        500.000        3343.02     
  1467.95        500.000        3343.33     
  1464.74        500.000        3343.62     
  1461.54        500.000        3343.98     
  1458.33        500.000        3344.37     
  1455.13        500.000        3344.77     
  1451.92        500.000        3345.16     
  1448.72        500.000        3345.55     
  1445.51        500.000        3345.95     
  1442.31        500.000        3346.34     
  1439.10        500.000        3346.73     
  1435.90        500.000        3347.12     
  1432.69        500.000        3347.49     
  1429.49        500.000        3346.13     
  1426.28        500.000        3346.57     
  1423.08        500.000        3344.32     
  1419.87        500.000        3344.76     
  1416.67        500.000        3345.21     
  1413.46        500.000        3345.65     
  1410.26        500.000        3342.00     
  1407.05        500.000        3342.44     
  1403.85        500.000        3342.88     
  1400.64        500.000        3343.32     
  1397.44        500.000        3343.76     
  1394.23        500.000        3344.20     
  1391.03        500.000        3344.64     
  1387.82        500.000        3345.08     
  1384.62        500.000        3340.14     
  1381.41        500.000        3340.58     
  1378.21        500.000        3341.02     
  1375.00        500.000        3341.45     
  1371.79        500.000        3341.89     
  1368.59        500.000        3342.32     
  1365.38        500.000        3342.76     
  1362.18        500.000        3343.19     
  1358.97        500.000        3339.72     
  1355.77        500.000        3340.15     
  1352.56        500.000        3340.58     
  1349.36        500.000        3341.01     
  1346.15        500.000        3341.45     
  1342.95        500.000        3341.88     
  1339.74        500.000        3342.31     
  1336.54        500.000        3342.74     
  1333.33        500.000        3339.95     
  1330.13        500.000        3340.38     
  1326.92        500.000        3340.81     
  1323.72        500.000        3341.24     
  1320.51        500.000        3341.67     
  1317.31        500.000        3342.09     
  1314.10        500.000        3342.52     
  1310.90        500.000        3342.95     
  1307.69        500.000        3340.58     
  1304.49        500.000        3341.01     
  1301.28        500.000        3340.79     
  1298.08        500.000        3336.75     
  1294.87        500.000        3336.34     
  1291.67        500.000        3336.77     
  1288.46        500.000        3337.19     
  1285.26        500.000        3337.61     
  1282.05        500.000        3337.78     
  1278.85        500.000        3338.20     
  1275.64        500.000        3338.62     
  1272.44        500.000        3339.04     
  1269.23        500.000        3339.46     
  1266.03        500.000        3339.88     
  1262.82        500.000        3340.30     
  1259.62        500.000        3340.72     
  1256.41        500.000        3340.64     
  1253.21        500.000        3341.06     
  1250.00        500.000        3341.47     
  1246.79        500.000        3341.89     
  1243.59        500.000        3342.31     
  1240.38        500.000        3342.73     
  1237.18        500.000        3343.15     
  1233.97        500.000        3343.56     
  1230.77        500.000        3343.57     
  1227.56        500.000        3343.99     
  1224.36        500.000        3344.41     
  1221.15        500.000        3344.82     
  1217.95        500.000        3345.24     
  1214.74        500.000        3345.65     
  1211.54        500.000        3346.07     
  1208.33        500.000        3346.48     
  1205.13        500.000        3346.49     
  1201.92        500.000        3346.91     
  1198.72        500.000        3347.32     
  1195.51        500.000        3347.74     
  1192.31        500.000        3348.15     
  1189.10        500.000        3348.56     
  1185.90        500.000        3348.98     
  1182.69        500.000        3349.39     
  1179.49        500.000        3349.43     
  1176.28        500.000        3349.84     
  1173.08        500.000        3350.25     
  1169.87        500.000        3350.67     
  1166.67        500.000        3351.08     
  1163.46        500.000        3351.49     
  1160.26        500.000        3351.90     
  1157.05        500.000        3352.31     
  1153.85        500.000        3352.38     
  1150.64        500.000        3352.79     
  1147.44        500.000        3353.20     
  1144.23        500.000        3353.61     
  1141.03        500.000        3354.02     
  1137.82        500.000        3354.43     
  1134.62        500.000        3354.84     
  1131.41        500.000        3355.25     
  1128.21        500.000        3355.35     
  1125.00        500.000        3355.76     
  1121.79        500.000        3356.16     
  1118.59        500.000        3356.57     
  1115.38        500.000        3356.98     
  1112.18        500.000        3357.38     
  1108.97        500.000        3357.79     
  1105.77        500.000        3358.20     
  1102.56        500.000        3358.33     
  1099.36        500.000        3358.74     
  1096.15        500.000        3359.14     
  1092.95        500.000        3359.55     
  1089.74        500.000        3359.95     
  1086.54        500.000        3360.36     
  1083.33        500.000        3360.76     
  1080.13        500.000        3361.17     
  1076.92        500.000        3361.33     
  1073.72        500.000        3361.74     
  1070.51        500.000        3362.14     
  1067.31        500.000        3362.54     
  1064.10        500.000        3362.84     
  1060.90        500.000        3363.22     
  1057.69        500.000        3363.60     
  1054.49        500.000        3364.00     
  1051.28        500.000        3364.34     
  1048.08        500.000        3364.75     
  1044.87        500.000        3365.15     
  1041.67        500.000        3365.55     
  1038.46        500.000        3365.95     
  1035.26        500.000        3366.35     
  1032.05        500.000        3366.75     
  1028.85        500.000        3367.15     
  1025.64        500.000        3367.35     
  1022.44        500.000        3367.75     
  1019.23        500.000        3368.14     
  1016.03        500.000        3368.54     
  1012.82        500.000        3368.94     
  1009.62        500.000        3369.34     
  1006.41        500.000        3369.74     
  1003.21        500.000        3370.14     
  1000.00        500.000        3370.36     
