|6.6.6
Archiving\03_Data\fracLP/QFM/TIS/TIS_4.tab                                
           1
T(K)    
  0.000000000000000E+000
  0.000000000000000E+000
           0
           3
T(K)           P(bar)         Sp(TH),m3     
  2000.00        500.000                 NaN
  1997.49        500.000                 NaN
  1994.99        500.000                 NaN
  1992.48        500.000                 NaN
  1989.97        500.000                 NaN
  1987.47        500.000                 NaN
  1984.96        500.000                 NaN
  1982.46        500.000                 NaN
  1979.95        500.000                 NaN
  1977.44        500.000                 NaN
  1974.94        500.000                 NaN
  1972.43        500.000                 NaN
  1969.92        500.000                 NaN
  1967.42        500.000                 NaN
  1964.91        500.000                 NaN
  1962.41        500.000                 NaN
  1959.90        500.000                 NaN
  1957.39        500.000                 NaN
  1954.89        500.000                 NaN
  1952.38        500.000                 NaN
  1949.87        500.000                 NaN
  1947.37        500.000                 NaN
  1944.86        500.000                 NaN
  1942.36        500.000                 NaN
  1939.85        500.000                 NaN
  1937.34        500.000                 NaN
  1934.84        500.000                 NaN
  1932.33        500.000                 NaN
  1929.82        500.000                 NaN
  1927.32        500.000                 NaN
  1924.81        500.000                 NaN
  1922.31        500.000                 NaN
  1919.80        500.000                 NaN
  1917.29        500.000                 NaN
  1914.79        500.000                 NaN
  1912.28        500.000                 NaN
  1909.77        500.000                 NaN
  1907.27        500.000                 NaN
  1904.76        500.000                 NaN
  1902.26        500.000                 NaN
  1899.75        500.000                 NaN
  1897.24        500.000                 NaN
  1894.74        500.000                 NaN
  1892.23        500.000                 NaN
  1889.72        500.000                 NaN
  1887.22        500.000                 NaN
  1884.71        500.000                 NaN
  1882.21        500.000                 NaN
  1879.70        500.000                 NaN
  1877.19        500.000                 NaN
  1874.69        500.000                 NaN
  1872.18        500.000                 NaN
  1869.67        500.000                 NaN
  1867.17        500.000                 NaN
  1864.66        500.000                 NaN
  1862.16        500.000                 NaN
  1859.65        500.000                 NaN
  1857.14        500.000                 NaN
  1854.64        500.000                 NaN
  1852.13        500.000                 NaN
  1849.62        500.000                 NaN
  1847.12        500.000                 NaN
  1844.61        500.000                 NaN
  1842.11        500.000                 NaN
  1839.60        500.000                 NaN
  1837.09        500.000                 NaN
  1834.59        500.000                 NaN
  1832.08        500.000                 NaN
  1829.57        500.000                 NaN
  1827.07        500.000                 NaN
  1824.56        500.000                 NaN
  1822.06        500.000                 NaN
  1819.55        500.000                 NaN
  1817.04        500.000                 NaN
  1814.54        500.000                 NaN
  1812.03        500.000                 NaN
  1809.52        500.000                 NaN
  1807.02        500.000                 NaN
  1804.51        500.000                 NaN
  1802.01        500.000                 NaN
  1799.50        500.000                 NaN
  1796.99        500.000                 NaN
  1794.49        500.000                 NaN
  1791.98        500.000                 NaN
  1789.47        500.000                 NaN
  1786.97        500.000                 NaN
  1784.46        500.000                 NaN
  1781.95        500.000                 NaN
  1779.45        500.000                 NaN
  1776.94        500.000                 NaN
  1774.44        500.000                 NaN
  1771.93        500.000                 NaN
  1769.42        500.000                 NaN
  1766.92        500.000                 NaN
  1764.41        500.000                 NaN
  1761.90        500.000                 NaN
  1759.40        500.000                 NaN
  1756.89        500.000                 NaN
  1754.39        500.000                 NaN
  1751.88        500.000                 NaN
  1749.37        500.000                 NaN
  1746.87        500.000                 NaN
  1744.36        500.000                 NaN
  1741.85        500.000                 NaN
  1739.35        500.000                 NaN
  1736.84        500.000                 NaN
  1734.34        500.000                 NaN
  1731.83        500.000                 NaN
  1729.32        500.000                 NaN
  1726.82        500.000                 NaN
  1724.31        500.000                 NaN
  1721.80        500.000                 NaN
  1719.30        500.000                 NaN
  1716.79        500.000                 NaN
  1714.29        500.000                 NaN
  1711.78        500.000                 NaN
  1709.27        500.000                 NaN
  1706.77        500.000                 NaN
  1704.26        500.000                 NaN
  1701.75        500.000                 NaN
  1699.25        500.000                 NaN
  1696.74        500.000                 NaN
  1694.24        500.000                 NaN
  1691.73        500.000                 NaN
  1689.22        500.000                 NaN
  1686.72        500.000       0.233474E-003
  1684.21        500.000       0.318031E-003
  1681.70        500.000       0.315981E-003
  1679.20        500.000       0.314267E-003
  1676.69        500.000       0.310002E-003
  1674.19        500.000       0.308815E-003
  1671.68        500.000       0.305808E-003
  1669.17        500.000       0.303244E-003
  1666.67        500.000       0.300949E-003
  1664.16        500.000       0.297887E-003
  1661.65        500.000       0.295918E-003
  1659.15        500.000       0.293353E-003
  1656.64        500.000       0.291211E-003
  1654.14        500.000       0.288311E-003
  1651.63        500.000       0.287337E-003
  1649.12        500.000       0.283334E-003
  1646.62        500.000       0.281267E-003
  1644.11        500.000       0.226912E-003
  1641.60        500.000       0.329001E-003
  1639.10        500.000       0.274309E-003
  1636.59        500.000       0.272379E-003
  1634.09        500.000       0.269505E-003
  1631.58        500.000       0.267592E-003
  1629.07        500.000       0.265261E-003
  1626.57        500.000       0.263265E-003
  1624.06        500.000       0.260656E-003
  1621.55        500.000       0.258424E-003
  1619.05        500.000       0.256018E-003
  1616.54        500.000       0.254727E-003
  1614.04        500.000       0.250716E-003
  1611.53        500.000       0.249381E-003
  1609.02        500.000       0.458572E-003
  1606.52        500.000       0.319200E-004
  1604.01        500.000       0.166907E-003
  1601.50        500.000       0.548157E-003
  1599.00        500.000       0.313376E-005
  1596.49        500.000       0.259567E-003
  1593.98        500.000       0.206669E-003
  1591.48        500.000       0.230368E-003
  1588.97        500.000       0.226914E-003
  1586.47        500.000       0.225204E-003
  1583.96        500.000       0.222983E-003
  1581.45        500.000       0.219940E-003
  1578.95        500.000       0.218065E-003
  1576.44        500.000       0.215675E-003
  1573.93        500.000       0.213325E-003
  1571.43        500.000       0.210977E-003
  1568.92        500.000       0.209338E-003
  1566.42        500.000       0.206032E-003
  1563.91        500.000       0.203696E-003
  1561.40        500.000       0.202108E-003
  1558.90        500.000       0.198523E-003
  1556.39        500.000       0.197032E-003
  1553.88        500.000       0.194628E-003
  1551.38        500.000                 NaN
  1548.87        500.000       0.382216E-003
  1546.37        500.000       0.188438E-003
  1543.86        500.000       0.185352E-003
  1541.35        500.000       0.183049E-003
  1538.85        500.000       0.181532E-003
  1536.34        500.000       0.178722E-003
  1533.83        500.000       0.176804E-003
  1531.33        500.000       0.174675E-003
  1528.82        500.000       0.172280E-003
  1526.32        500.000       0.170161E-003
  1523.81        500.000       0.167920E-003
  1521.30        500.000       0.166236E-003
  1518.80        500.000       0.164144E-003
  1516.29        500.000       0.171825E-003
  1513.78        500.000       0.149743E-003
  1511.28        500.000       0.116793E-003
  1508.77        500.000       0.641963E-004
  1506.27        500.000                 NaN
  1503.76        500.000                 NaN
  1501.25        500.000                 NaN
  1498.75        500.000                 NaN
  1496.24        500.000                 NaN
  1493.73        500.000                 NaN
  1491.23        500.000                 NaN
  1488.72        500.000                 NaN
  1486.22        500.000                 NaN
  1483.71        500.000                 NaN
  1481.20        500.000                 NaN
  1478.70        500.000                 NaN
  1476.19        500.000                 NaN
  1473.68        500.000                 NaN
  1471.18        500.000                 NaN
  1468.67        500.000                 NaN
  1466.17        500.000                 NaN
  1463.66        500.000                 NaN
  1461.15        500.000                 NaN
  1458.65        500.000                 NaN
  1456.14        500.000                 NaN
  1453.63        500.000                 NaN
  1451.13        500.000                 NaN
  1448.62        500.000                 NaN
  1446.12        500.000                 NaN
  1443.61        500.000                 NaN
  1441.10        500.000                 NaN
  1438.60        500.000                 NaN
  1436.09        500.000                 NaN
  1433.58        500.000                 NaN
  1431.08        500.000                 NaN
  1428.57        500.000                 NaN
  1426.07        500.000                 NaN
  1423.56        500.000                 NaN
  1421.05        500.000                 NaN
  1418.55        500.000                 NaN
  1416.04        500.000                 NaN
  1413.53        500.000                 NaN
  1411.03        500.000                 NaN
  1408.52        500.000                 NaN
  1406.02        500.000                 NaN
  1403.51        500.000                 NaN
  1401.00        500.000                 NaN
  1398.50        500.000                 NaN
  1395.99        500.000                 NaN
  1393.48        500.000                 NaN
  1390.98        500.000                 NaN
  1388.47        500.000                 NaN
  1385.96        500.000                 NaN
  1383.46        500.000                 NaN
  1380.95        500.000                 NaN
  1378.45        500.000                 NaN
  1375.94        500.000                 NaN
  1373.43        500.000                 NaN
  1370.93        500.000                 NaN
  1368.42        500.000                 NaN
  1365.91        500.000                 NaN
  1363.41        500.000                 NaN
  1360.90        500.000       0.126225E-003
  1358.40        500.000       0.143048E-002
  1355.89        500.000       0.252519E-002
  1353.38        500.000       0.319313E-002
  1350.88        500.000       0.339657E-002
  1348.37        500.000       0.337307E-002
  1345.86        500.000       0.323788E-002
  1343.36        500.000       0.305854E-002
  1340.85        500.000       0.288335E-002
  1338.35        500.000       0.270652E-002
  1335.84        500.000       0.254864E-002
  1333.33        500.000       0.239525E-002
  1330.83        500.000       0.225573E-002
  1328.32        500.000       0.212687E-002
  1325.81        500.000       0.200555E-002
  1323.31        500.000       0.189496E-002
  1320.80        500.000       0.179361E-002
  1318.30        500.000       0.169611E-002
  1315.79        500.000       0.160550E-002
  1313.28        500.000       0.152224E-002
  1310.78        500.000       0.144359E-002
  1308.27        500.000       0.137056E-002
  1305.76        500.000       0.130131E-002
  1303.26        500.000       0.123790E-002
  1300.75        500.000       0.117743E-002
  1298.25        500.000       0.112041E-002
  1295.74        500.000       0.106670E-002
  1293.23        500.000       0.101631E-002
  1290.73        500.000       0.968002E-003
  1288.22        500.000       0.922644E-003
  1285.71        500.000       0.880004E-003
  1283.21        500.000       0.838727E-003
  1280.70        500.000       0.800481E-003
  1278.20        500.000       0.764057E-003
  1275.69        500.000       0.728835E-003
  1273.18        500.000       0.694816E-003
  1270.68        500.000       0.663562E-003
  1268.17        500.000       0.633802E-003
  1265.66        500.000       0.604674E-003
  1263.16        500.000       0.577206E-003
  1260.65        500.000       0.551265E-003
  1258.15        500.000       0.525952E-003
  1255.64        500.000       0.105143E-002
  1253.13        500.000       0.103626E-002
  1250.63        500.000       0.915602E-003
  1248.12        500.000       0.818394E-003
  1245.61        500.000       0.736125E-003
  1243.11        500.000       0.667474E-003
  1240.60        500.000       0.607477E-003
  1238.10        500.000       0.554439E-003
  1235.59        500.000       0.507419E-003
  1233.08        500.000       0.464805E-003
  1230.58        500.000       0.426618E-003
  1228.07        500.000       0.391784E-003
  1225.56        500.000       0.361163E-003
  1223.06        500.000       0.332288E-003
  1220.55        500.000       0.306490E-003
  1218.05        500.000       0.371680E-003
  1215.54        500.000       0.301246E-002
  1213.03        500.000       0.111179E-002
  1210.53        500.000       0.411689E-003
  1208.02        500.000       0.223690E-003
  1205.51        500.000       0.175714E-003
  1203.01        500.000       0.571858E-004
  1200.50        500.000       0.639080E-004
  1197.99        500.000       0.446087E-004
  1195.49        500.000       0.325806E-004
  1192.98        500.000       0.150432E-005
  1190.48        500.000       0.237126E-004
  1187.97        500.000       0.273138E-004
  1185.46        500.000       0.720629E-004
  1182.96        500.000       0.717743E-004
  1180.45        500.000       0.717449E-004
  1177.94        500.000       0.712081E-004
  1175.44        500.000       0.708485E-004
  1172.93        500.000       0.706378E-004
  1170.43        500.000       0.703715E-004
  1167.92        500.000       0.701050E-004
  1165.41        500.000       0.698453E-004
  1162.91        500.000       0.696420E-004
  1160.40        500.000       0.693132E-004
  1157.89        500.000       0.690653E-004
  1155.39        500.000       0.688590E-004
  1152.88        500.000       0.685984E-004
  1150.38        500.000       0.683492E-004
  1147.87        500.000       0.680990E-004
  1145.36        500.000       0.678543E-004
  1142.86        500.000       0.676059E-004
  1140.35        500.000       0.673659E-004
  1137.84        500.000       0.671255E-004
  1135.34        500.000       0.668926E-004
  1132.83        500.000       0.666508E-004
  1130.33        500.000       0.664197E-004
  1127.82        500.000       0.661620E-004
  1125.31        500.000       0.659586E-004
  1122.81        500.000       0.657443E-004
  1120.30        500.000       0.655180E-004
  1117.79        500.000       0.653204E-004
  1115.29        500.000       0.651036E-004
  1112.78        500.000       0.648778E-004
  1110.28        500.000       0.646844E-004
  1107.77        500.000       0.644895E-004
  1105.26        500.000       0.643018E-004
  1102.76        500.000       0.641147E-004
  1100.25        500.000       0.639286E-004
  1097.74        500.000       0.637481E-004
  1095.24        500.000       0.635685E-004
  1092.73        500.000       0.633933E-004
  1090.23        500.000       0.632176E-004
  1087.72        500.000       0.630497E-004
  1085.21        500.000       0.628661E-004
  1082.71        500.000       0.627090E-004
  1080.20        500.000       0.625567E-004
  1077.69        500.000       0.623977E-004
  1075.19        500.000       0.622413E-004
  1072.68        500.000       0.620872E-004
  1070.18        500.000       0.619369E-004
  1067.67        500.000       0.617868E-004
  1065.16        500.000       0.616429E-004
  1062.66        500.000       0.614966E-004
  1060.15        500.000       0.613586E-004
  1057.64        500.000       0.612226E-004
  1055.14        500.000       0.610870E-004
  1052.63        500.000       0.609546E-004
  1050.13        500.000       0.608242E-004
  1047.62        500.000       0.606970E-004
  1045.11        500.000       0.605718E-004
  1042.61        500.000       0.604487E-004
  1040.10        500.000       0.603264E-004
  1037.59        500.000       0.602064E-004
  1035.09        500.000       0.600898E-004
  1032.58        500.000       0.599754E-004
  1030.08        500.000       0.598629E-004
  1027.57        500.000       0.597525E-004
  1025.06        500.000       0.596442E-004
  1022.56        500.000       0.595384E-004
  1020.05        500.000       0.594357E-004
  1017.54        500.000       0.593295E-004
  1015.04        500.000       0.592290E-004
  1012.53        500.000       0.591304E-004
  1010.03        500.000       0.590323E-004
  1007.52        500.000       0.589354E-004
  1005.01        500.000       0.586759E-004
  1002.51        500.000       0.587484E-004
  1000.00        500.000       0.586560E-004
