|6.6.6
Archiving\03_Data\fracLP/QFM/TIS/TIS_2.tab                                
           1
T(K)    
  0.000000000000000E+000
  0.000000000000000E+000
           0
           3
T(K)           P(bar)         Sp(TH),kg     
  2000.00        500.000                 NaN
  1997.49        500.000                 NaN
  1994.99        500.000                 NaN
  1992.48        500.000                 NaN
  1989.97        500.000                 NaN
  1987.47        500.000                 NaN
  1984.96        500.000                 NaN
  1982.46        500.000                 NaN
  1979.95        500.000                 NaN
  1977.44        500.000                 NaN
  1974.94        500.000                 NaN
  1972.43        500.000                 NaN
  1969.92        500.000                 NaN
  1967.42        500.000                 NaN
  1964.91        500.000                 NaN
  1962.41        500.000                 NaN
  1959.90        500.000                 NaN
  1957.39        500.000                 NaN
  1954.89        500.000                 NaN
  1952.38        500.000                 NaN
  1949.87        500.000                 NaN
  1947.37        500.000                 NaN
  1944.86        500.000                 NaN
  1942.36        500.000                 NaN
  1939.85        500.000                 NaN
  1937.34        500.000                 NaN
  1934.84        500.000                 NaN
  1932.33        500.000                 NaN
  1929.82        500.000                 NaN
  1927.32        500.000                 NaN
  1924.81        500.000                 NaN
  1922.31        500.000                 NaN
  1919.80        500.000                 NaN
  1917.29        500.000                 NaN
  1914.79        500.000                 NaN
  1912.28        500.000                 NaN
  1909.77        500.000                 NaN
  1907.27        500.000                 NaN
  1904.76        500.000                 NaN
  1902.26        500.000                 NaN
  1899.75        500.000                 NaN
  1897.24        500.000                 NaN
  1894.74        500.000                 NaN
  1892.23        500.000                 NaN
  1889.72        500.000                 NaN
  1887.22        500.000                 NaN
  1884.71        500.000                 NaN
  1882.21        500.000                 NaN
  1879.70        500.000                 NaN
  1877.19        500.000                 NaN
  1874.69        500.000                 NaN
  1872.18        500.000                 NaN
  1869.67        500.000                 NaN
  1867.17        500.000                 NaN
  1864.66        500.000                 NaN
  1862.16        500.000                 NaN
  1859.65        500.000                 NaN
  1857.14        500.000                 NaN
  1854.64        500.000                 NaN
  1852.13        500.000                 NaN
  1849.62        500.000                 NaN
  1847.12        500.000                 NaN
  1844.61        500.000                 NaN
  1842.11        500.000                 NaN
  1839.60        500.000                 NaN
  1837.09        500.000                 NaN
  1834.59        500.000                 NaN
  1832.08        500.000                 NaN
  1829.57        500.000                 NaN
  1827.07        500.000                 NaN
  1824.56        500.000                 NaN
  1822.06        500.000                 NaN
  1819.55        500.000                 NaN
  1817.04        500.000                 NaN
  1814.54        500.000                 NaN
  1812.03        500.000                 NaN
  1809.52        500.000                 NaN
  1807.02        500.000                 NaN
  1804.51        500.000                 NaN
  1802.01        500.000                 NaN
  1799.50        500.000                 NaN
  1796.99        500.000                 NaN
  1794.49        500.000                 NaN
  1791.98        500.000                 NaN
  1789.47        500.000                 NaN
  1786.97        500.000                 NaN
  1784.46        500.000                 NaN
  1781.95        500.000                 NaN
  1779.45        500.000                 NaN
  1776.94        500.000                 NaN
  1774.44        500.000                 NaN
  1771.93        500.000                 NaN
  1769.42        500.000                 NaN
  1766.92        500.000                 NaN
  1764.41        500.000                 NaN
  1761.90        500.000                 NaN
  1759.40        500.000                 NaN
  1756.89        500.000                 NaN
  1754.39        500.000                 NaN
  1751.88        500.000                 NaN
  1749.37        500.000                 NaN
  1746.87        500.000                 NaN
  1744.36        500.000                 NaN
  1741.85        500.000                 NaN
  1739.35        500.000                 NaN
  1736.84        500.000                 NaN
  1734.34        500.000                 NaN
  1731.83        500.000                 NaN
  1729.32        500.000                 NaN
  1726.82        500.000                 NaN
  1724.31        500.000                 NaN
  1721.80        500.000                 NaN
  1719.30        500.000                 NaN
  1716.79        500.000                 NaN
  1714.29        500.000                 NaN
  1711.78        500.000                 NaN
  1709.27        500.000                 NaN
  1706.77        500.000                 NaN
  1704.26        500.000                 NaN
  1701.75        500.000                 NaN
  1699.25        500.000                 NaN
  1696.74        500.000                 NaN
  1694.24        500.000                 NaN
  1691.73        500.000                 NaN
  1689.22        500.000                 NaN
  1686.72        500.000       0.105366E-004
  1684.21        500.000       0.143546E-004
  1681.70        500.000       0.142634E-004
  1679.20        500.000       0.141913E-004
  1676.69        500.000       0.139975E-004
  1674.19        500.000       0.139458E-004
  1671.68        500.000       0.138116E-004
  1669.17        500.000       0.136982E-004
  1666.67        500.000       0.135948E-004
  1664.16        500.000       0.134599E-004
  1661.65        500.000       0.133717E-004
  1659.15        500.000       0.132578E-004
  1656.64        500.000       0.131623E-004
  1654.14        500.000       0.130328E-004
  1651.63        500.000       0.129899E-004
  1649.12        500.000       0.128109E-004
  1646.62        500.000       0.127192E-004
  1644.11        500.000       0.102732E-004
  1641.60        500.000       0.148853E-004
  1639.10        500.000       0.124086E-004
  1636.59        500.000       0.123248E-004
  1634.09        500.000       0.121957E-004
  1631.58        500.000       0.121098E-004
  1629.07        500.000       0.120087E-004
  1626.57        500.000       0.119177E-004
  1624.06        500.000       0.118028E-004
  1621.55        500.000       0.117036E-004
  1619.05        500.000       0.115958E-004
  1616.54        500.000       0.115404E-004
  1614.04        500.000       0.113624E-004
  1611.53        500.000       0.113062E-004
  1609.02        500.000       0.208135E-004
  1606.52        500.000       0.144794E-005
  1604.01        500.000       0.756943E-005
  1601.50        500.000       0.248609E-004
  1599.00        500.000       0.142343E-006
  1596.49        500.000       0.117903E-004
  1593.98        500.000       0.938886E-005
  1591.48        500.000       0.104714E-004
  1588.97        500.000       0.103143E-004
  1586.47        500.000       0.102390E-004
  1583.96        500.000       0.101420E-004
  1581.45        500.000       0.100059E-004
  1578.95        500.000       0.992339E-005
  1576.44        500.000       0.981614E-005
  1573.93        500.000       0.971262E-005
  1571.43        500.000       0.960750E-005
  1568.92        500.000       0.953608E-005
  1566.42        500.000       0.938641E-005
  1563.91        500.000       0.928288E-005
  1561.40        500.000       0.921185E-005
  1558.90        500.000       0.905172E-005
  1556.39        500.000       0.898570E-005
  1553.88        500.000       0.887708E-005
  1551.38        500.000                 NaN
  1548.87        500.000       0.174434E-004
  1546.37        500.000       0.860212E-005
  1543.86        500.000       0.846012E-005
  1541.35        500.000       0.835885E-005
  1538.85        500.000       0.828849E-005
  1536.34        500.000       0.816308E-005
  1533.83        500.000       0.807756E-005
  1531.33        500.000       0.797966E-005
  1528.82        500.000       0.787313E-005
  1526.32        500.000       0.777864E-005
  1523.81        500.000       0.767719E-005
  1521.30        500.000       0.760036E-005
  1518.80        500.000       0.750873E-005
  1516.29        500.000       0.785749E-005
  1513.78        500.000       0.684994E-005
  1511.28        500.000       0.534366E-005
  1508.77        500.000       0.294101E-005
  1506.27        500.000                 NaN
  1503.76        500.000                 NaN
  1501.25        500.000                 NaN
  1498.75        500.000                 NaN
  1496.24        500.000                 NaN
  1493.73        500.000                 NaN
  1491.23        500.000                 NaN
  1488.72        500.000                 NaN
  1486.22        500.000                 NaN
  1483.71        500.000                 NaN
  1481.20        500.000                 NaN
  1478.70        500.000                 NaN
  1476.19        500.000                 NaN
  1473.68        500.000                 NaN
  1471.18        500.000                 NaN
  1468.67        500.000                 NaN
  1466.17        500.000                 NaN
  1463.66        500.000                 NaN
  1461.15        500.000                 NaN
  1458.65        500.000                 NaN
  1456.14        500.000                 NaN
  1453.63        500.000                 NaN
  1451.13        500.000                 NaN
  1448.62        500.000                 NaN
  1446.12        500.000                 NaN
  1443.61        500.000                 NaN
  1441.10        500.000                 NaN
  1438.60        500.000                 NaN
  1436.09        500.000                 NaN
  1433.58        500.000                 NaN
  1431.08        500.000                 NaN
  1428.57        500.000                 NaN
  1426.07        500.000                 NaN
  1423.56        500.000                 NaN
  1421.05        500.000                 NaN
  1418.55        500.000                 NaN
  1416.04        500.000                 NaN
  1413.53        500.000                 NaN
  1411.03        500.000                 NaN
  1408.52        500.000                 NaN
  1406.02        500.000                 NaN
  1403.51        500.000                 NaN
  1401.00        500.000                 NaN
  1398.50        500.000                 NaN
  1395.99        500.000                 NaN
  1393.48        500.000                 NaN
  1390.98        500.000                 NaN
  1388.47        500.000                 NaN
  1385.96        500.000                 NaN
  1383.46        500.000                 NaN
  1380.95        500.000                 NaN
  1378.45        500.000                 NaN
  1375.94        500.000                 NaN
  1373.43        500.000                 NaN
  1370.93        500.000                 NaN
  1368.42        500.000                 NaN
  1365.91        500.000                 NaN
  1363.41        500.000                 NaN
  1360.90        500.000       0.596158E-005
  1358.40        500.000       0.675295E-004
  1355.89        500.000       0.119216E-003
  1353.38        500.000       0.150828E-003
  1350.88        500.000       0.160584E-003
  1348.37        500.000       0.159608E-003
  1345.86        500.000       0.153326E-003
  1343.36        500.000       0.144984E-003
  1340.85        500.000       0.136806E-003
  1338.35        500.000       0.128505E-003
  1335.84        500.000       0.121119E-003
  1333.33        500.000       0.113911E-003
  1330.83        500.000       0.107365E-003
  1328.32        500.000       0.101313E-003
  1325.81        500.000       0.956040E-004
  1323.31        500.000       0.903849E-004
  1320.80        500.000       0.856138E-004
  1318.30        500.000       0.809957E-004
  1315.79        500.000       0.767173E-004
  1313.28        500.000       0.727843E-004
  1310.78        500.000       0.690601E-004
  1308.27        500.000       0.656022E-004
  1305.76        500.000       0.623152E-004
  1303.26        500.000       0.593080E-004
  1300.75        500.000       0.564376E-004
  1298.25        500.000       0.537341E-004
  1295.74        500.000       0.511791E-004
  1293.23        500.000       0.487875E-004
  1290.73        500.000       0.464873E-004
  1288.22        500.000       0.443267E-004
  1285.71        500.000       0.422950E-004
  1283.21        500.000       0.403266E-004
  1280.70        500.000       0.385003E-004
  1278.20        500.000       0.367653E-004
  1275.69        500.000       0.350850E-004
  1273.18        500.000       0.334575E-004
  1270.68        500.000       0.319639E-004
  1268.17        500.000       0.305405E-004
  1265.66        500.000       0.291486E-004
  1263.16        500.000       0.278289E-004
  1260.65        500.000       0.265887E-004
  1258.15        500.000       0.253743E-004
  1255.64        500.000       0.507085E-004
  1253.13        500.000       0.499469E-004
  1250.63        500.000       0.441056E-004
  1248.12        500.000       0.394003E-004
  1245.61        500.000       0.354184E-004
  1243.11        500.000       0.320998E-004
  1240.60        500.000       0.291960E-004
  1238.10        500.000       0.266349E-004
  1235.59        500.000       0.243645E-004
  1233.08        500.000       0.223088E-004
  1230.58        500.000       0.204700E-004
  1228.07        500.000       0.187920E-004
  1225.56        500.000       0.173167E-004
  1223.06        500.000       0.159279E-004
  1220.55        500.000       0.146884E-004
  1218.05        500.000       0.178796E-004
  1215.54        500.000       0.144452E-003
  1213.03        500.000       0.534757E-004
  1210.53        500.000       0.197924E-004
  1208.02        500.000       0.108047E-004
  1205.51        500.000       0.850541E-005
  1203.01        500.000       0.274673E-005
  1200.50        500.000       0.308571E-005
  1197.99        500.000       0.213168E-005
  1195.49        500.000       0.156694E-005
  1192.98        500.000       0.726632E-007
  1190.48        500.000       0.113931E-005
  1187.97        500.000       0.131188E-005
  1185.46        500.000       0.345689E-005
  1182.96        500.000       0.344467E-005
  1180.45        500.000       0.344391E-005
  1177.94        500.000       0.342071E-005
  1175.44        500.000       0.340548E-005
  1172.93        500.000       0.339655E-005
  1170.43        500.000       0.338535E-005
  1167.92        500.000       0.337415E-005
  1165.41        500.000       0.336325E-005
  1162.91        500.000       0.335447E-005
  1160.40        500.000       0.334104E-005
  1157.89        500.000       0.333050E-005
  1155.39        500.000       0.332157E-005
  1152.88        500.000       0.331071E-005
  1150.38        500.000       0.330026E-005
  1147.87        500.000       0.328975E-005
  1145.36        500.000       0.327945E-005
  1142.86        500.000       0.326913E-005
  1140.35        500.000       0.325902E-005
  1137.84        500.000       0.324897E-005
  1135.34        500.000       0.323926E-005
  1132.83        500.000       0.322918E-005
  1130.33        500.000       0.321951E-005
  1127.82        500.000       0.320862E-005
  1125.31        500.000       0.320022E-005
  1122.81        500.000       0.319135E-005
  1120.30        500.000       0.318190E-005
  1117.79        500.000       0.317383E-005
  1115.29        500.000       0.316478E-005
  1112.78        500.000       0.315534E-005
  1110.28        500.000       0.314739E-005
  1107.77        500.000       0.313937E-005
  1105.26        500.000       0.313172E-005
  1102.76        500.000       0.312407E-005
  1100.25        500.000       0.311645E-005
  1097.74        500.000       0.310909E-005
  1095.24        500.000       0.310176E-005
  1092.73        500.000       0.309462E-005
  1090.23        500.000       0.308745E-005
  1087.72        500.000       0.308064E-005
  1085.21        500.000       0.307302E-005
  1082.71        500.000       0.306672E-005
  1080.20        500.000       0.306066E-005
  1077.69        500.000       0.305423E-005
  1075.19        500.000       0.304791E-005
  1072.68        500.000       0.304169E-005
  1070.18        500.000       0.303564E-005
  1067.67        500.000       0.302958E-005
  1065.16        500.000       0.302381E-005
  1062.66        500.000       0.301790E-005
  1060.15        500.000       0.301241E-005
  1057.64        500.000       0.300699E-005
  1055.14        500.000       0.300157E-005
  1052.63        500.000       0.299629E-005
  1050.13        500.000       0.299111E-005
  1047.62        500.000       0.298606E-005
  1045.11        500.000       0.298110E-005
  1042.61        500.000       0.297623E-005
  1040.10        500.000       0.297138E-005
  1037.59        500.000       0.296663E-005
  1035.09        500.000       0.296204E-005
  1032.58        500.000       0.295754E-005
  1030.08        500.000       0.295313E-005
  1027.57        500.000       0.294881E-005
  1025.06        500.000       0.294457E-005
  1022.56        500.000       0.294045E-005
  1020.05        500.000       0.293648E-005
  1017.54        500.000       0.293231E-005
  1015.04        500.000       0.292841E-005
  1012.53        500.000       0.292460E-005
  1010.03        500.000       0.292080E-005
  1007.52        500.000       0.291704E-005
  1005.01        500.000       0.290454E-005
  1002.51        500.000       0.290984E-005
  1000.00        500.000       0.290627E-005
