|6.6.6
Archiving\03_Data\Deq/QFM_m0.25/T13/T13_3.tab                         
           1
T(K)    
  0.000000000000000E+000
  0.000000000000000E+000
           0
           9
T(K)           P(bar)         melt(TH)       O(HP)          Sp(TH)         Opx(TH)        Cpx(TH)        Cpx(TH)        an            
  2000.00        2500.00        99.7191       0.280938                 NaN            NaN            NaN            NaN            NaN
  1996.79        2500.00        99.6997       0.300305                 NaN            NaN            NaN            NaN            NaN
  1993.59        2500.00        99.6803       0.319676                 NaN            NaN            NaN            NaN            NaN
  1990.38        2500.00        99.6609       0.339052                 NaN            NaN            NaN            NaN            NaN
  1987.18        2500.00        99.6416       0.358433                 NaN            NaN            NaN            NaN            NaN
  1983.97        2500.00        99.6222       0.377818                 NaN            NaN            NaN            NaN            NaN
  1980.77        2500.00        99.6028       0.397208                 NaN            NaN            NaN            NaN            NaN
  1977.56        2500.00        99.5834       0.416602                 NaN            NaN            NaN            NaN            NaN
  1974.36        2500.00        99.5640       0.436001                 NaN            NaN            NaN            NaN            NaN
  1971.15        2500.00        99.4960       0.503987                 NaN            NaN            NaN            NaN            NaN
  1967.95        2500.00        99.4280       0.571994                 NaN            NaN            NaN            NaN            NaN
  1964.74        2500.00        99.3600       0.640022                 NaN            NaN            NaN            NaN            NaN
  1961.54        2500.00        99.2919       0.708069                 NaN            NaN            NaN            NaN            NaN
  1958.33        2500.00        99.2239       0.776137                 NaN            NaN            NaN            NaN            NaN
  1955.13        2500.00        99.1558       0.844225                 NaN            NaN            NaN            NaN            NaN
  1951.92        2500.00        99.0877       0.912333                 NaN            NaN            NaN            NaN            NaN
  1948.72        2500.00        99.0195       0.980462                 NaN            NaN            NaN            NaN            NaN
  1945.51        2500.00        98.6651        1.33495                 NaN            NaN            NaN            NaN            NaN
  1942.31        2500.00        98.3103        1.68968                 NaN            NaN            NaN            NaN            NaN
  1939.10        2500.00        97.9554        2.04464                 NaN            NaN            NaN            NaN            NaN
  1935.90        2500.00        97.6001        2.39985                 NaN            NaN            NaN            NaN            NaN
  1932.69        2500.00        97.2447        2.75530                 NaN            NaN            NaN            NaN            NaN
  1929.49        2500.00        96.8890        3.11099                 NaN            NaN            NaN            NaN            NaN
  1926.28        2500.00        96.5331        3.46691                 NaN            NaN            NaN            NaN            NaN
  1923.08        2500.00        96.1769        3.82307                 NaN            NaN            NaN            NaN            NaN
  1919.87        2500.00        95.5654        4.43457                 NaN            NaN            NaN            NaN            NaN
  1916.67        2500.00        94.9151        5.07378       0.110742E-001            NaN            NaN            NaN            NaN
  1913.46        2500.00        94.2400        5.73663       0.233608E-001            NaN            NaN            NaN            NaN
  1910.26        2500.00        93.5641        6.40021       0.356616E-001            NaN            NaN            NaN            NaN
  1907.05        2500.00        92.8775        7.07509       0.474336E-001            NaN            NaN            NaN            NaN
  1903.85        2500.00        92.1901        7.75072       0.592194E-001            NaN            NaN            NaN            NaN
  1900.64        2500.00        91.5019        8.42711       0.710188E-001            NaN            NaN            NaN            NaN
  1897.44        2500.00        90.8129        9.10425       0.828318E-001            NaN            NaN            NaN            NaN
  1894.23        2500.00        90.1414        9.76476       0.938229E-001            NaN            NaN            NaN            NaN
  1891.03        2500.00        89.4692        10.4260       0.104827                 NaN            NaN            NaN            NaN
  1887.82        2500.00        88.7962        11.0880       0.115843                 NaN            NaN            NaN            NaN
  1884.62        2500.00        88.1225        11.7506       0.126871                 NaN            NaN            NaN            NaN
  1881.41        2500.00        87.4480        12.4140       0.137912                 NaN            NaN            NaN            NaN
  1878.21        2500.00        86.7729        13.0782       0.148965                 NaN            NaN            NaN            NaN
  1875.00        2500.00        86.0970        13.7430       0.160031                 NaN            NaN            NaN            NaN
  1871.79        2500.00        85.4204        14.4085       0.171109                 NaN            NaN            NaN            NaN
  1868.59        2500.00        84.7831        15.0357       0.181198                 NaN            NaN            NaN            NaN
  1865.38        2500.00        84.1452        15.6635       0.191299                 NaN            NaN            NaN            NaN
  1862.18        2500.00        83.5067        16.2919       0.201410                 NaN            NaN            NaN            NaN
  1858.97        2500.00        82.8675        16.9210       0.211532                 NaN            NaN            NaN            NaN
  1855.77        2500.00        82.2276        17.5507       0.221664                 NaN            NaN            NaN            NaN
  1852.56        2500.00        81.5871        18.1811       0.231807                 NaN            NaN            NaN            NaN
  1849.36        2500.00        80.9460        18.8120       0.241960                 NaN            NaN            NaN            NaN
  1846.15        2500.00        80.3043        19.4436       0.252124                 NaN            NaN            NaN            NaN
  1842.95        2500.00        79.6958        20.0428       0.261381                 NaN            NaN            NaN            NaN
  1839.74        2500.00        79.0868        20.6425       0.270647                 NaN            NaN            NaN            NaN
  1836.54        2500.00        78.4772        21.2429       0.279922                 NaN            NaN            NaN            NaN
  1833.33        2500.00        77.8671        21.8437       0.289206                 NaN            NaN            NaN            NaN
  1830.13        2500.00        77.2563        22.4452       0.298500                 NaN            NaN            NaN            NaN
  1826.92        2500.00        76.6450        23.0472       0.307802                 NaN            NaN            NaN            NaN
  1823.72        2500.00        76.0332        23.6497       0.317114                 NaN            NaN            NaN            NaN
  1820.51        2500.00        75.4208        24.2528       0.326434                 NaN            NaN            NaN            NaN
  1817.31        2500.00        74.8339        24.8310       0.335008                 NaN            NaN            NaN            NaN
  1814.10        2500.00        74.2466        25.4098       0.343590                 NaN            NaN            NaN            NaN
  1810.90        2500.00        73.6587        25.9891       0.352179                 NaN            NaN            NaN            NaN
  1807.69        2500.00        73.0704        26.5688       0.360777                 NaN            NaN            NaN            NaN
  1804.49        2500.00        72.4815        27.1491       0.369382                 NaN            NaN            NaN            NaN
  1801.28        2500.00        71.8921        27.7299       0.377995                 NaN            NaN            NaN            NaN
  1798.08        2500.00        71.3023        28.3111       0.386616                 NaN            NaN            NaN            NaN
  1794.87        2500.00        70.7119        28.8929       0.395244                 NaN            NaN            NaN            NaN
  1791.67        2500.00        70.1441        29.4528       0.403149                 NaN            NaN            NaN            NaN
  1788.46        2500.00        69.5757        30.0132       0.411059                 NaN            NaN            NaN            NaN
  1785.26        2500.00        69.0070        30.5740       0.418977                 NaN            NaN            NaN            NaN
  1782.05        2500.00        68.4378        31.1353       0.426901                 NaN            NaN            NaN            NaN
  1778.85        2500.00        67.8681        31.6970       0.434832                 NaN            NaN            NaN            NaN
  1775.64        2500.00        67.2980        32.2592       0.442769                 NaN            NaN            NaN            NaN
  1772.44        2500.00        66.7275        32.8218       0.450712                 NaN            NaN            NaN            NaN
  1769.23        2500.00        66.1565        33.3848       0.458662                 NaN            NaN            NaN            NaN
  1766.03        2500.00        65.6073        33.9267       0.466013                 NaN            NaN            NaN            NaN
  1762.82        2500.00        65.0577        34.4689       0.473370                 NaN            NaN            NaN            NaN
  1759.62        2500.00        64.5077        35.0116       0.480732                 NaN            NaN            NaN            NaN
  1756.41        2500.00        63.9573        35.5546       0.488100                 NaN            NaN            NaN            NaN
  1753.21        2500.00        63.4066        36.0980       0.495473                 NaN            NaN            NaN            NaN
  1750.00        2500.00        62.8554        36.6417       0.502852                 NaN            NaN            NaN            NaN
  1746.79        2500.00        62.3039        37.1859       0.510236                 NaN            NaN            NaN            NaN
  1743.59        2500.00        61.7520        37.7304       0.517625                 NaN            NaN            NaN            NaN
  1740.38        2500.00        61.2247        38.2509       0.524408                 NaN            NaN            NaN            NaN
  1737.18        2500.00        60.6971        38.7717       0.531196                 NaN            NaN            NaN            NaN
  1733.97        2500.00        60.1692        39.2928       0.537989                 NaN            NaN            NaN            NaN
  1730.77        2500.00        59.6410        39.8142       0.544785                 NaN            NaN            NaN            NaN
  1727.56        2500.00        59.1124        40.3360       0.551586                 NaN            NaN            NaN            NaN
  1724.36        2500.00        58.5836        40.8580       0.558392                 NaN            NaN            NaN            NaN
  1721.15        2500.00        58.0544        41.3804       0.565201                 NaN            NaN            NaN            NaN
  1717.95        2500.00        57.5249        41.9031       0.572015                 NaN            NaN            NaN            NaN
  1714.74        2500.00        57.0246        42.3970       0.578386                 NaN            NaN            NaN            NaN
  1711.54        2500.00        56.5241        42.8911       0.584760                 NaN            NaN            NaN            NaN
  1708.33        2500.00        56.0233        43.3855       0.591137                 NaN            NaN            NaN            NaN
  1705.13        2500.00        55.5223        43.8802       0.597518                 NaN            NaN            NaN            NaN
  1701.92        2500.00        55.0210        44.3751       0.603903                 NaN            NaN            NaN            NaN
  1698.72        2500.00        54.5195        44.8702       0.610291                 NaN            NaN            NaN            NaN
  1695.51        2500.00        54.0177        45.3656       0.616682                 NaN            NaN            NaN            NaN
  1692.31        2500.00        53.5157        45.8613       0.623076                 NaN            NaN            NaN            NaN
  1689.10        2500.00        53.0491        46.3218       0.629138                 NaN            NaN            NaN            NaN
  1685.90        2500.00        52.5824        46.7824       0.635203                 NaN            NaN            NaN            NaN
  1682.69        2500.00        52.1154        47.2433       0.641270                 NaN            NaN            NaN            NaN
  1679.49        2500.00        51.6483        47.7044       0.647340                 NaN            NaN            NaN            NaN
  1676.28        2500.00        51.1809        48.1656       0.653412                 NaN            NaN            NaN            NaN
  1673.08        2500.00        50.7134        48.6271       0.659487                 NaN            NaN            NaN            NaN
  1669.87        2500.00        50.2458        49.0887       0.665565                 NaN            NaN            NaN            NaN
  1666.67        2500.00        49.7779        49.5504       0.671645                 NaN            NaN            NaN            NaN
  1663.46        2500.00        49.3395        49.9832       0.677318                 NaN            NaN            NaN            NaN
  1660.26        2500.00        48.9010        50.4160       0.682994                 NaN            NaN            NaN            NaN
  1657.05        2500.00        48.4623        50.8490       0.688671                 NaN            NaN            NaN            NaN
  1653.85        2500.00        48.0235        51.2821       0.694351                 NaN            NaN            NaN            NaN
  1650.64        2500.00        47.6008        51.6993       0.699917                 NaN            NaN            NaN            NaN
  1647.44        2500.00        47.1779        52.1166       0.705485                 NaN            NaN            NaN            NaN
  1644.23        2500.00        46.7627        52.5263       0.710965                 NaN            NaN            NaN            NaN
  1641.03        2500.00        45.9918        52.8534       0.713165       0.441670                 NaN            NaN            NaN
  1637.82        2500.00        44.9784        53.0451       0.711053        1.26545                 NaN            NaN            NaN
  1634.62        2500.00        43.9630        53.2371       0.708935        2.09104                 NaN            NaN            NaN
  1631.41        2500.00        42.9453        53.4294       0.706812        2.91845                 NaN            NaN            NaN
  1628.21        2500.00        41.9256        53.6220       0.704682        3.74767                 NaN            NaN            NaN
  1625.00        2500.00        40.9037        53.8150       0.702547        4.57872                 NaN            NaN            NaN
  1621.79        2500.00        39.8798        54.0083       0.700405        5.41158                 NaN            NaN            NaN
  1618.59        2500.00        38.8536        54.2019       0.698258        6.24627                 NaN            NaN            NaN
  1615.38        2500.00        37.8254        54.3958       0.696105        7.08277                 NaN            NaN            NaN
  1612.18        2500.00        37.0604        54.5321       0.693145        7.71433                 NaN            NaN            NaN
  1608.97        2500.00        36.2943        54.6686       0.690180        8.34693                 NaN            NaN            NaN
  1605.77        2500.00        35.5269        54.8053       0.687209        8.98058                 NaN            NaN            NaN
  1602.56        2500.00        34.7584        54.9421       0.684233        9.61528                 NaN            NaN            NaN
  1599.36        2500.00        33.9887        55.0790       0.681251        10.2510                 NaN            NaN            NaN
  1596.15        2500.00        33.2178        55.2162       0.678263        10.8878                 NaN            NaN            NaN
  1592.95        2500.00        32.4457        55.3534       0.675269        11.5257                 NaN            NaN            NaN
  1589.74        2500.00        31.6724        55.4908       0.672270        12.1645                 NaN            NaN            NaN
  1586.54        2500.00        31.0614        55.5921       0.668462        12.6780                 NaN            NaN            NaN
  1583.33        2500.00        30.4498        55.6934       0.664648        13.1922                 NaN            NaN            NaN
  1580.13        2500.00        29.8374        55.7948       0.660828        13.7070                 NaN            NaN            NaN
  1576.92        2500.00        29.2242        55.8963       0.657003        14.2225                 NaN            NaN            NaN
  1573.72        2500.00        28.6103        55.9978       0.653172        14.7387                 NaN            NaN            NaN
  1570.51        2500.00        27.9956        56.0995       0.649335        15.2556                 NaN            NaN            NaN
  1567.31        2500.00        27.3802        56.2012       0.645492        15.7732                 NaN            NaN            NaN
  1564.10        2500.00        26.7640        56.3030       0.641644        16.2914                 NaN            NaN            NaN
  1560.90        2500.00        26.2441        56.3820       0.636821        16.7371                 NaN            NaN            NaN
  1557.69        2500.00        25.7237        56.4611       0.631991        17.1833                 NaN            NaN            NaN
  1554.49        2500.00        25.2027        56.5402       0.627155        17.6299                 NaN            NaN            NaN
  1551.28        2500.00        24.6812        56.6194       0.622314        18.0771                 NaN            NaN            NaN
  1548.08        2500.00        24.1591        56.6986       0.617466        18.5248                 NaN            NaN            NaN
  1544.87        2500.00        23.6365        56.7779       0.612613        18.9730                 NaN            NaN            NaN
  1541.67        2500.00        23.1134        56.8572       0.607753        19.4216                 NaN            NaN            NaN
  1538.46        2500.00        22.5897        56.9366       0.602888        19.8708                 NaN            NaN            NaN
