|6.6.6
Archiving\03_Data\DeqLP/QFM_m2/YM20/YM20_6.tab                          
           1
T(K)    
  0.000000000000000E+000
  0.000000000000000E+000
           0
           3
T(K)           P(bar)         rho,kg/m3     
  2000.00        500.000        8099.88     
  1996.79        500.000        8101.72     
  1993.59        500.000        8103.55     
  1990.38        500.000        8105.38     
  1987.18        500.000        8107.21     
  1983.97        500.000        8109.03     
  1980.77        500.000        8110.86     
  1977.56        500.000        8112.68     
  1974.36        500.000        8114.50     
  1971.15        500.000        8116.32     
  1967.95        500.000        8118.14     
  1964.74        500.000        8119.96     
  1961.54        500.000        8121.78     
  1958.33        500.000        8123.59     
  1955.13        500.000        8125.41     
  1951.92        500.000        8127.22     
  1948.72        500.000        8129.03     
  1945.51        500.000        8130.84     
  1942.31        500.000        8132.64     
  1939.10        500.000        8134.45     
  1935.90        500.000        8136.25     
  1932.69        500.000        8138.06     
  1929.49        500.000        8139.86     
  1926.28        500.000        5854.17     
  1923.08        500.000        3222.69     
  1919.87        500.000        3179.19     
  1916.67        500.000        3172.78     
  1913.46        500.000        3169.69     
  1910.26        500.000        3167.47     
  1907.05        500.000        3165.71     
  1903.85        500.000        3164.52     
  1900.64        500.000        3163.71     
  1897.44        500.000        3163.16     
  1894.23        500.000        3163.31     
  1891.03        500.000        3163.63     
  1887.82        500.000        3166.40     
  1884.62        500.000        3168.76     
  1881.41        500.000        3171.76     
  1878.21        500.000        3174.37     
  1875.00        500.000        3176.68     
  1871.79        500.000        3178.74     
  1868.59        500.000        3181.64     
  1865.38        500.000        3184.26     
  1862.18        500.000        3186.64     
  1858.97        500.000        3188.83     
  1855.77        500.000        3190.84     
  1852.56        500.000        3192.71     
  1849.36        500.000        3194.45     
  1846.15        500.000        3196.09     
  1842.95        500.000        3198.51     
  1839.74        500.000        3200.79     
  1836.54        500.000        3202.94     
  1833.33        500.000        3204.96     
  1830.13        500.000        3206.88     
  1826.92        500.000        3208.71     
  1823.72        500.000        3210.45     
  1820.51        500.000        3212.11     
  1817.31        500.000        3214.30     
  1814.10        500.000        3216.39     
  1810.90        500.000        3218.40     
  1807.69        500.000        3220.33     
  1804.49        500.000        3222.18     
  1801.28        500.000        3223.96     
  1798.08        500.000        3225.67     
  1794.87        500.000        3227.33     
  1791.67        500.000        3229.35     
  1788.46        500.000        3231.30     
  1785.26        500.000        3233.19     
  1782.05        500.000        3235.02     
  1778.85        500.000        3236.79     
  1775.64        500.000        3238.51     
  1772.44        500.000        3240.18     
  1769.23        500.000        3241.80     
  1766.03        500.000        3243.65     
  1762.82        500.000        3245.45     
  1759.62        500.000        3247.20     
  1756.41        500.000        3248.91     
  1753.21        500.000        3250.58     
  1750.00        500.000        3252.20     
  1746.79        500.000        3253.79     
  1743.59        500.000        3255.34     
  1740.38        500.000        3257.01     
  1737.18        500.000        3258.64     
  1733.97        500.000        3260.24     
  1730.77        500.000        3261.80     
  1727.56        500.000        3263.33     
  1724.36        500.000        3264.84     
  1721.15        500.000        3266.31     
  1717.95        500.000        3267.75     
  1714.74        500.000        3269.23     
  1711.54        500.000        3270.69     
  1708.33        500.000        3272.12     
  1705.13        500.000        3273.52     
  1701.92        500.000        3274.90     
  1698.72        500.000        3276.26     
  1695.51        500.000        3277.60     
  1692.31        500.000        3278.92     
  1689.10        500.000        3280.22     
  1685.90        500.000        3281.50     
  1682.69        500.000        3282.76     
  1679.49        500.000        3284.01     
  1676.28        500.000        3285.24     
  1673.08        500.000        3286.45     
  1669.87        500.000        3287.65     
  1666.67        500.000        3288.83     
  1663.46        500.000        3289.96     
  1660.26        500.000        3291.07     
  1657.05        500.000        3292.17     
  1653.85        500.000        3293.25     
  1650.64        500.000        3294.33     
  1647.44        500.000        3295.39     
  1644.23        500.000        3296.44     
  1641.03        500.000        3297.48     
  1637.82        500.000        3298.46     
  1634.62        500.000        3299.44     
  1631.41        500.000        3300.40     
  1628.21        500.000        3301.36     
  1625.00        500.000        3302.31     
  1621.79        500.000        3303.25     
  1618.59        500.000        3304.18     
  1615.38        500.000        3305.10     
  1612.18        500.000        3304.94     
  1608.97        500.000        3303.82     
  1605.77        500.000        3302.88     
  1602.56        500.000        3301.99     
  1599.36        500.000        3301.33     
  1596.15        500.000        3300.72     
  1592.95        500.000        3300.13     
  1589.74        500.000        3299.59     
  1586.54        500.000        3299.30     
  1583.33        500.000        3299.04     
  1580.13        500.000        3298.80     
  1576.92        500.000        3298.57     
  1573.72        500.000        3298.36     
  1570.51        500.000        3298.16     
  1567.31        500.000        3297.98     
  1564.10        500.000        3297.82     
  1560.90        500.000        3297.83     
  1557.69        500.000        3297.85     
  1554.49        500.000        3297.88     
  1551.28        500.000        3297.91     
  1548.08        500.000        3297.95     
  1544.87        500.000        3298.00     
  1541.67        500.000        3298.06     
  1538.46        500.000        3298.12     
  1535.26        500.000        3298.26     
  1532.05        500.000        3298.41     
  1528.85        500.000        3298.56     
  1525.64        500.000        3298.71     
  1522.44        500.000        3298.87     
  1519.23        500.000        3299.04     
  1516.03        500.000        3299.21     
  1512.82        500.000        3299.38     
  1509.62        500.000        3299.59     
  1506.41        500.000        3299.80     
  1503.21        500.000        3300.02     
  1500.00        500.000        3300.24     
  1496.79        500.000        3300.46     
  1493.59        500.000        3300.68     
  1490.38        500.000        3300.91     
  1487.18        500.000        3301.14     
  1483.97        500.000        3301.39     
  1480.77        500.000        3301.64     
  1477.56        500.000        3301.89     
  1474.36        500.000        3302.14     
  1471.15        500.000        3302.46     
  1467.95        500.000        3302.82     
  1464.74        500.000        3303.20     
  1461.54        500.000        3303.59     
  1458.33        500.000        3304.01     
  1455.13        500.000        3304.44     
  1451.92        500.000        3304.86     
  1448.72        500.000        3305.28     
  1445.51        500.000        3305.52     
  1442.31        500.000        3303.83     
  1439.10        500.000        3304.27     
  1435.90        500.000        3300.96     
  1432.69        500.000        3301.40     
  1429.49        500.000        3301.84     
  1426.28        500.000        3302.28     
  1423.08        500.000        3302.72     
  1419.87        500.000        3303.16     
  1416.67        500.000        3303.60     
  1413.46        500.000        3304.03     
  1410.26        500.000        3295.99     
  1407.05        500.000        3296.42     
  1403.85        500.000        3296.85     
  1400.64        500.000        3297.28     
  1397.44        500.000        3297.71     
  1394.23        500.000        3298.15     
  1391.03        500.000        3298.58     
  1387.82        500.000        3299.01     
  1384.62        500.000        3294.56     
  1381.41        500.000        3294.99     
  1378.21        500.000        3295.42     
  1375.00        500.000        3295.84     
  1371.79        500.000        3296.27     
  1368.59        500.000        3296.70     
  1365.38        500.000        3297.12     
  1362.18        500.000        3297.55     
  1358.97        500.000        3294.25     
  1355.77        500.000        3294.67     
  1352.56        500.000        3295.10     
  1349.36        500.000        3295.52     
  1346.15        500.000        3295.94     
  1342.95        500.000        3296.36     
  1339.74        500.000        3296.79     
  1336.54        500.000        3297.21     
  1333.33        500.000        3294.47     
  1330.13        500.000        3294.89     
  1326.92        500.000        3295.31     
  1323.72        500.000        3295.73     
  1320.51        500.000        3296.15     
  1317.31        500.000        3296.56     
  1314.10        500.000        3296.98     
  1310.90        500.000        3297.40     
  1307.69        500.000        3295.03     
  1304.49        500.000        3295.45     
  1301.28        500.000        3295.22     
  1298.08        500.000        3290.51     
  1294.87        500.000        3290.86     
  1291.67        500.000        3291.27     
  1288.46        500.000        3291.69     
  1285.26        500.000        3292.10     
  1282.05        500.000        3292.27     
  1278.85        500.000        3292.68     
  1275.64        500.000        3293.09     
  1272.44        500.000        3293.51     
  1269.23        500.000        3293.92     
  1266.03        500.000        3294.33     
  1262.82        500.000        3294.74     
  1259.62        500.000        3295.15     
  1256.41        500.000        3295.11     
  1253.21        500.000        3295.52     
  1250.00        500.000        3295.93     
  1246.79        500.000        3296.34     
  1243.59        500.000        3296.75     
  1240.38        500.000        3297.16     
  1237.18        500.000        3297.57     
  1233.97        500.000        3297.97     
  1230.77        500.000        3297.96     
  1227.56        500.000        3298.37     
  1224.36        500.000        3298.78     
  1221.15        500.000        3299.18     
  1217.95        500.000        3299.59     
  1214.74        500.000        3300.00     
  1211.54        500.000        3300.41     
  1208.33        500.000        3300.81     
  1205.13        500.000        3300.83     
  1201.92        500.000        3301.24     
  1198.72        500.000        3301.64     
  1195.51        500.000        3302.05     
  1192.31        500.000        3302.45     
  1189.10        500.000        3302.86     
  1185.90        500.000        3303.26     
  1182.69        500.000        3303.67     
  1179.49        500.000        3303.72     
  1176.28        500.000        3304.12     
  1173.08        500.000        3304.52     
  1169.87        500.000        3304.93     
  1166.67        500.000        3305.33     
  1163.46        500.000        3305.73     
  1160.26        500.000        3306.13     
  1157.05        500.000        3306.54     
  1153.85        500.000        3306.62     
  1150.64        500.000        3307.02     
  1147.44        500.000        3307.42     
  1144.23        500.000        3307.82     
  1141.03        500.000        3308.22     
  1137.82        500.000        3308.62     
  1134.62        500.000        3309.02     
  1131.41        500.000        3309.42     
  1128.21        500.000        3309.54     
  1125.00        500.000        3309.93     
  1121.79        500.000        3310.33     
  1118.59        500.000        3310.73     
  1115.38        500.000        3311.13     
  1112.18        500.000        3311.53     
  1108.97        500.000        3311.93     
  1105.77        500.000        3312.32     
  1102.56        500.000        3312.47     
  1099.36        500.000        3312.87     
  1096.15        500.000        3313.26     
  1092.95        500.000        3313.66     
  1089.74        500.000        3314.06     
  1086.54        500.000        3314.45     
  1083.33        500.000        3314.85     
  1080.13        500.000        3315.24     
  1076.92        500.000        3315.42     
  1073.72        500.000        3315.82     
  1070.51        500.000        3316.17     
  1067.31        500.000        3316.54     
  1064.10        500.000        3316.91     
  1060.90        500.000        3317.30     
  1057.69        500.000        3317.70     
  1054.49        500.000        3318.09     
  1051.28        500.000        3318.39     
  1048.08        500.000        3318.78     
  1044.87        500.000        3319.17     
  1041.67        500.000        3319.57     
  1038.46        500.000        3319.96     
  1035.26        500.000        3320.35     
  1032.05        500.000        3320.74     
  1028.85        500.000        3321.13     
  1025.64        500.000        3321.34     
  1022.44        500.000        3321.73     
  1019.23        500.000        3322.13     
  1016.03        500.000        3322.52     
  1012.82        500.000        3322.91     
  1009.62        500.000        3323.30     
  1006.41        500.000        3323.69     
  1003.21        500.000        3324.08     
  1000.00        500.000        3324.31     
