|6.6.6
Archiving\03_Data\DeqLP/QFM_m1.5/WD94/WD94_6.tab                          
           1
T(K)    
  0.000000000000000E+000
  0.000000000000000E+000
           0
           3
T(K)           P(bar)         rho,kg/m3     
  2000.00        500.000        2937.36     
  1996.79        500.000        2938.13     
  1993.59        500.000        2938.91     
  1990.38        500.000        2939.68     
  1987.18        500.000        2940.45     
  1983.97        500.000        2941.23     
  1980.77        500.000        2942.00     
  1977.56        500.000        2942.77     
  1974.36        500.000        2943.55     
  1971.15        500.000        2944.32     
  1967.95        500.000        2945.09     
  1964.74        500.000        2945.86     
  1961.54        500.000        2946.64     
  1958.33        500.000        2947.41     
  1955.13        500.000        2948.19     
  1951.92        500.000        2948.96     
  1948.72        500.000        2949.73     
  1945.51        500.000        2950.51     
  1942.31        500.000        2951.28     
  1939.10        500.000        2952.05     
  1935.90        500.000        2952.83     
  1932.69        500.000        2953.60     
  1929.49        500.000        2954.37     
  1926.28        500.000        2955.15     
  1923.08        500.000        2955.92     
  1919.87        500.000        2956.70     
  1916.67        500.000        2957.47     
  1913.46        500.000        2958.24     
  1910.26        500.000        2959.02     
  1907.05        500.000        3161.32     
  1903.85        500.000        3163.13     
  1900.64        500.000        3165.88     
  1897.44        500.000        3167.21     
  1894.23        500.000        3170.67     
  1891.03        500.000        3173.01     
  1887.82        500.000        3174.76     
  1884.62        500.000        3176.16     
  1881.41        500.000        3178.63     
  1878.21        500.000        3180.69     
  1875.00        500.000        3183.31     
  1871.79        500.000        3186.05     
  1868.59        500.000        3190.56     
  1865.38        500.000        3194.51     
  1862.18        500.000        3198.01     
  1858.97        500.000        3201.13     
  1855.77        500.000        3203.95     
  1852.56        500.000        3206.51     
  1849.36        500.000        3208.85     
  1846.15        500.000        3211.01     
  1842.95        500.000        3214.43     
  1839.74        500.000        3217.59     
  1836.54        500.000        3220.54     
  1833.33        500.000        3223.28     
  1830.13        500.000        3225.86     
  1826.92        500.000        3228.28     
  1823.72        500.000        3230.57     
  1820.51        500.000        3232.73     
  1817.31        500.000        3235.57     
  1814.10        500.000        3238.25     
  1810.90        500.000        3240.81     
  1807.69        500.000        3243.25     
  1804.49        500.000        3245.58     
  1801.28        500.000        3247.81     
  1798.08        500.000        3249.94     
  1794.87        500.000        3251.99     
  1791.67        500.000        3254.51     
  1788.46        500.000        3256.92     
  1785.26        500.000        3259.25     
  1782.05        500.000        3261.50     
  1778.85        500.000        3263.66     
  1775.64        500.000        3265.75     
  1772.44        500.000        3267.78     
  1769.23        500.000        3269.74     
  1766.03        500.000        3272.05     
  1762.82        500.000        3274.29     
  1759.62        500.000        3276.47     
  1756.41        500.000        3278.58     
  1753.21        500.000        3280.63     
  1750.00        500.000        3282.62     
  1746.79        500.000        3284.56     
  1743.59        500.000        3286.45     
  1740.38        500.000        3288.46     
  1737.18        500.000        3290.42     
  1733.97        500.000        3292.34     
  1730.77        500.000        3294.21     
  1727.56        500.000        3296.03     
  1724.36        500.000        3297.82     
  1721.15        500.000        3299.56     
  1717.95        500.000        3301.27     
  1714.74        500.000        3303.20     
  1711.54        500.000        3305.09     
  1708.33        500.000        3306.94     
  1705.13        500.000        3308.75     
  1701.92        500.000        3310.53     
  1698.72        500.000        3312.27     
  1695.51        500.000        3313.98     
  1692.31        500.000        3315.66     
  1689.10        500.000        3317.02     
  1685.90        500.000        3318.37     
  1682.69        500.000        3319.69     
  1679.49        500.000        3320.99     
  1676.28        500.000        3322.28     
  1673.08        500.000        3323.54     
  1669.87        500.000        3324.79     
  1666.67        500.000        3326.03     
  1663.46        500.000        3327.28     
  1660.26        500.000        3328.52     
  1657.05        500.000        3329.74     
  1653.85        500.000        3330.95     
  1650.64        500.000        3332.15     
  1647.44        500.000        3333.33     
  1644.23        500.000        3334.50     
  1641.03        500.000        3335.65     
  1637.82        500.000        3336.80     
  1634.62        500.000        3337.94     
  1631.41        500.000        3339.07     
  1628.21        500.000        3340.19     
  1625.00        500.000        3341.18     
  1621.79        500.000        3342.15     
  1618.59        500.000        3343.17     
  1615.38        500.000        3342.56     
  1612.18        500.000        3341.89     
  1608.97        500.000        3341.24     
  1605.77        500.000        3340.64     
  1602.56        500.000        3340.06     
  1599.36        500.000        3339.52     
  1596.15        500.000        3339.01     
  1592.95        500.000        3338.52     
  1589.74        500.000        3338.07     
  1586.54        500.000        3337.93     
  1583.33        500.000        3337.80     
  1580.13        500.000        3337.69     
  1576.92        500.000        3337.59     
  1573.72        500.000        3337.50     
  1570.51        500.000        3337.43     
  1567.31        500.000        3337.36     
  1564.10        500.000        3337.30     
  1560.90        500.000        3337.40     
  1557.69        500.000        3337.51     
  1554.49        500.000        3337.62     
  1551.28        500.000        3337.74     
  1548.08        500.000        3337.86     
  1544.87        500.000        3337.99     
  1541.67        500.000        3338.12     
  1538.46        500.000        3338.25     
  1535.26        500.000        3338.44     
  1532.05        500.000        3338.63     
  1528.85        500.000        3338.83     
  1525.64        500.000        3339.02     
  1522.44        500.000        3339.23     
  1519.23        500.000        3339.43     
  1516.03        500.000        3339.64     
  1512.82        500.000        3339.85     
  1509.62        500.000        3340.05     
  1506.41        500.000        3340.26     
  1503.21        500.000        3340.48     
  1500.00        500.000        3340.69     
  1496.79        500.000        3340.91     
  1493.59        500.000        3341.14     
  1490.38        500.000        3341.36     
  1487.18        500.000        3341.59     
  1483.97        500.000        3341.86     
  1480.77        500.000        3342.14     
  1477.56        500.000        3342.41     
  1474.36        500.000        3342.69     
  1471.15        500.000        3342.96     
  1467.95        500.000        3343.23     
  1464.74        500.000        3343.45     
  1461.54        500.000        3343.79     
  1458.33        500.000        3344.16     
  1455.13        500.000        3344.53     
  1451.92        500.000        3344.89     
  1448.72        500.000        3345.26     
  1445.51        500.000        3345.63     
  1442.31        500.000        3346.00     
  1439.10        500.000        3346.37     
  1435.90        500.000        3346.74     
  1432.69        500.000        3347.13     
  1429.49        500.000        3346.87     
  1426.28        500.000        3347.32     
  1423.08        500.000        3344.84     
  1419.87        500.000        3345.28     
  1416.67        500.000        3345.73     
  1413.46        500.000        3346.17     
  1410.26        500.000        3342.43     
  1407.05        500.000        3342.87     
  1403.85        500.000        3343.32     
  1400.64        500.000        3343.76     
  1397.44        500.000        3344.20     
  1394.23        500.000        3344.64     
  1391.03        500.000        3345.08     
  1387.82        500.000        3345.52     
  1384.62        500.000        3340.53     
  1381.41        500.000        3340.96     
  1378.21        500.000        3341.40     
  1375.00        500.000        3341.83     
  1371.79        500.000        3342.27     
  1368.59        500.000        3342.71     
  1365.38        500.000        3343.14     
  1362.18        500.000        3343.58     
  1358.97        500.000        3340.09     
  1355.77        500.000        3340.52     
  1352.56        500.000        3340.96     
  1349.36        500.000        3341.39     
  1346.15        500.000        3341.82     
  1342.95        500.000        3342.25     
  1339.74        500.000        3342.68     
  1336.54        500.000        3343.11     
  1333.33        500.000        3340.28     
  1330.13        500.000        3340.71     
  1326.92        500.000        3341.14     
  1323.72        500.000        3341.57     
  1320.51        500.000        3342.00     
  1317.31        500.000        3342.42     
  1314.10        500.000        3342.85     
  1310.90        500.000        3343.28     
  1307.69        500.000        3340.87     
  1304.49        500.000        3341.29     
  1301.28        500.000        3341.07     
  1298.08        500.000        3340.29     
  1294.87        500.000        3336.71     
  1291.67        500.000        3337.13     
  1288.46        500.000        3337.55     
  1285.26        500.000        3337.98     
  1282.05        500.000        3338.14     
  1278.85        500.000        3338.56     
  1275.64        500.000        3338.98     
  1272.44        500.000        3339.40     
  1269.23        500.000        3339.82     
  1266.03        500.000        3340.24     
  1262.82        500.000        3340.66     
  1259.62        500.000        3341.08     
  1256.41        500.000        3341.00     
  1253.21        500.000        3341.42     
  1250.00        500.000        3341.84     
  1246.79        500.000        3342.26     
  1243.59        500.000        3342.68     
  1240.38        500.000        3343.10     
  1237.18        500.000        3343.51     
  1233.97        500.000        3343.93     
  1230.77        500.000        3343.88     
  1227.56        500.000        3344.29     
  1224.36        500.000        3344.71     
  1221.15        500.000        3345.13     
  1217.95        500.000        3345.54     
  1214.74        500.000        3345.96     
  1211.54        500.000        3346.37     
  1208.33        500.000        3346.79     
  1205.13        500.000        3346.79     
  1201.92        500.000        3347.20     
  1198.72        500.000        3347.62     
  1195.51        500.000        3348.03     
  1192.31        500.000        3348.45     
  1189.10        500.000        3348.86     
  1185.90        500.000        3349.27     
  1182.69        500.000        3349.69     
  1179.49        500.000        3349.71     
  1176.28        500.000        3350.12     
  1173.08        500.000        3350.53     
  1169.87        500.000        3350.95     
  1166.67        500.000        3351.36     
  1163.46        500.000        3351.77     
  1160.26        500.000        3352.18     
  1157.05        500.000        3352.59     
  1153.85        500.000        3352.64     
  1150.64        500.000        3353.05     
  1147.44        500.000        3353.46     
  1144.23        500.000        3353.87     
  1141.03        500.000        3354.28     
  1137.82        500.000        3354.69     
  1134.62        500.000        3355.10     
  1131.41        500.000        3355.51     
  1128.21        500.000        3355.60     
  1125.00        500.000        3356.01     
  1121.79        500.000        3356.42     
  1118.59        500.000        3356.82     
  1115.38        500.000        3357.23     
  1112.18        500.000        3357.64     
  1108.97        500.000        3358.04     
  1105.77        500.000        3358.45     
  1102.56        500.000        3358.57     
  1099.36        500.000        3358.98     
  1096.15        500.000        3359.38     
  1092.95        500.000        3359.79     
  1089.74        500.000        3360.19     
  1086.54        500.000        3360.59     
  1083.33        500.000        3361.00     
  1080.13        500.000        3361.40     
  1076.92        500.000        3361.56     
  1073.72        500.000        3361.96     
  1070.51        500.000        3362.37     
  1067.31        500.000        3362.77     
  1064.10        500.000        3363.06     
  1060.90        500.000        3363.44     
  1057.69        500.000        3363.82     
  1054.49        500.000        3364.22     
  1051.28        500.000        3364.57     
  1048.08        500.000        3364.97     
  1044.87        500.000        3365.37     
  1041.67        500.000        3365.77     
  1038.46        500.000        3366.17     
  1035.26        500.000        3366.57     
  1032.05        500.000        3366.97     
  1028.85        500.000        3367.37     
  1025.64        500.000        3367.56     
  1022.44        500.000        3367.96     
  1019.23        500.000        3368.35     
  1016.03        500.000        3368.75     
  1012.82        500.000        3369.15     
  1009.62        500.000        3369.55     
  1006.41        500.000        3369.95     
  1003.21        500.000        3370.35     
  1000.00        500.000        3370.56     
