|6.6.6
Archiving\03_Data\DeqLP/QFM_m1.75/T13/T13_6.tab                       
           1
T(K)    
  0.000000000000000E+000
  0.000000000000000E+000
           0
           3
T(K)           P(bar)         rho,kg/m3     
  2000.00        500.000        8099.88     
  1996.79        500.000        8101.72     
  1993.59        500.000        8103.55     
  1990.38        500.000        8105.38     
  1987.18        500.000        8107.21     
  1983.97        500.000        8109.03     
  1980.77        500.000        8110.86     
  1977.56        500.000        8112.68     
  1974.36        500.000        8114.50     
  1971.15        500.000        8116.32     
  1967.95        500.000        8118.14     
  1964.74        500.000        8119.96     
  1961.54        500.000        8121.78     
  1958.33        500.000        8123.59     
  1955.13        500.000        8125.41     
  1951.92        500.000        3778.09     
  1948.72        500.000        3189.10     
  1945.51        500.000        3180.32     
  1942.31        500.000        3175.53     
  1939.10        500.000        3172.62     
  1935.90        500.000        3170.72     
  1932.69        500.000        3169.45     
  1929.49        500.000        3168.58     
  1926.28        500.000        3167.99     
  1923.08        500.000        3167.60     
  1919.87        500.000        3169.59     
  1916.67        500.000        3171.17     
  1913.46        500.000        3172.49     
  1910.26        500.000        3173.62     
  1907.05        500.000        3174.63     
  1903.85        500.000        3175.54     
  1900.64        500.000        3176.38     
  1897.44        500.000        3177.17     
  1894.23        500.000        3179.42     
  1891.03        500.000        3181.44     
  1887.82        500.000        3182.96     
  1884.62        500.000        3185.78     
  1881.41        500.000        3189.11     
  1878.21        500.000        3192.15     
  1875.00        500.000        3194.94     
  1871.79        500.000        3197.51     
  1868.59        500.000        3200.77     
  1865.38        500.000        3203.80     
  1862.18        500.000        3206.63     
  1858.97        500.000        3209.28     
  1855.77        500.000        3211.78     
  1852.56        500.000        3214.13     
  1849.36        500.000        3216.36     
  1846.15        500.000        3218.47     
  1842.95        500.000        3221.33     
  1839.74        500.000        3224.04     
  1836.54        500.000        3226.64     
  1833.33        500.000        3229.11     
  1830.13        500.000        3231.48     
  1826.92        500.000        3233.75     
  1823.72        500.000        3235.93     
  1820.51        500.000        3238.03     
  1817.31        500.000        3240.60     
  1814.10        500.000        3243.08     
  1810.90        500.000        3245.48     
  1807.69        500.000        3247.79     
  1804.49        500.000        3250.02     
  1801.28        500.000        3252.18     
  1798.08        500.000        3254.28     
  1794.87        500.000        3256.31     
  1791.67        500.000        3258.67     
  1788.46        500.000        3260.96     
  1785.26        500.000        3263.19     
  1782.05        500.000        3265.35     
  1778.85        500.000        3267.46     
  1775.64        500.000        3269.52     
  1772.44        500.000        3271.52     
  1769.23        500.000        3273.47     
  1766.03        500.000        3275.59     
  1762.82        500.000        3277.66     
  1759.62        500.000        3279.69     
  1756.41        500.000        3281.66     
  1753.21        500.000        3283.60     
  1750.00        500.000        3285.49     
  1746.79        500.000        3287.35     
  1743.59        500.000        3289.16     
  1740.38        500.000        3291.07     
  1737.18        500.000        3292.94     
  1733.97        500.000        3294.78     
  1730.77        500.000        3296.58     
  1727.56        500.000        3298.35     
  1724.36        500.000        3300.09     
  1721.15        500.000        3301.79     
  1717.95        500.000        3303.47     
  1714.74        500.000        3305.14     
  1711.54        500.000        3306.78     
  1708.33        500.000        3308.40     
  1705.13        500.000        3309.99     
  1701.92        500.000        3311.56     
  1698.72        500.000        3313.11     
  1695.51        500.000        3314.63     
  1692.31        500.000        3316.13     
  1689.10        500.000        3317.58     
  1685.90        500.000        3319.01     
  1682.69        500.000        3320.42     
  1679.49        500.000        3321.81     
  1676.28        500.000        3323.19     
  1673.08        500.000        3324.55     
  1669.87        500.000        3325.89     
  1666.67        500.000        3327.22     
  1663.46        500.000        3328.46     
  1660.26        500.000        3329.69     
  1657.05        500.000        3330.91     
  1653.85        500.000        3332.12     
  1650.64        500.000        3333.31     
  1647.44        500.000        3334.49     
  1644.23        500.000        3335.66     
  1641.03        500.000        3336.82     
  1637.82        500.000        3337.90     
  1634.62        500.000        3338.96     
  1631.41        500.000        3340.02     
  1628.21        500.000        3341.07     
  1625.00        500.000        3342.11     
  1621.79        500.000        3343.15     
  1618.59        500.000        3344.17     
  1615.38        500.000        3345.19     
  1612.18        500.000        3346.15     
  1608.97        500.000        3347.11     
  1605.77        500.000        3348.06     
  1602.56        500.000        3349.00     
  1599.36        500.000        3348.82     
  1596.15        500.000        3348.29     
  1592.95        500.000        3347.85     
  1589.74        500.000        3347.42     
  1586.54        500.000        3347.20     
  1583.33        500.000        3347.00     
  1580.13        500.000        3346.80     
  1576.92        500.000        3346.63     
  1573.72        500.000        3346.46     
  1570.51        500.000        3346.31     
  1567.31        500.000        3346.16     
  1564.10        500.000        3346.03     
  1560.90        500.000        3346.06     
  1557.69        500.000        3346.10     
  1554.49        500.000        3346.15     
  1551.28        500.000        3346.20     
  1548.08        500.000        3346.25     
  1544.87        500.000        3346.31     
  1541.67        500.000        3346.38     
  1538.46        500.000        3346.45     
  1535.26        500.000        3346.60     
  1532.05        500.000        3346.74     
  1528.85        500.000        3346.90     
  1525.64        500.000        3347.05     
  1522.44        500.000        3347.21     
  1519.23        500.000        3347.37     
  1516.03        500.000        3347.54     
  1512.82        500.000        3347.71     
  1509.62        500.000        3347.90     
  1506.41        500.000        3348.09     
  1503.21        500.000        3348.29     
  1500.00        500.000        3348.49     
  1496.79        500.000        3348.69     
  1493.59        500.000        3348.90     
  1490.38        500.000        3349.11     
  1487.18        500.000        3349.32     
  1483.97        500.000        3349.53     
  1480.77        500.000        3349.75     
  1477.56        500.000        3349.97     
  1474.36        500.000        3350.19     
  1471.15        500.000        3350.42     
  1467.95        500.000        3350.64     
  1464.74        500.000        3350.87     
  1461.54        500.000        3351.10     
  1458.33        500.000        3351.42     
  1455.13        500.000        3351.74     
  1451.92        500.000        3352.05     
  1448.72        500.000        3352.37     
  1445.51        500.000        3352.69     
  1442.31        500.000        3353.00     
  1439.10        500.000        3353.32     
  1435.90        500.000        3353.64     
  1432.69        500.000        3352.91     
  1429.49        500.000        3351.51     
  1426.28        500.000        3351.95     
  1423.08        500.000        3349.40     
  1419.87        500.000        3349.84     
  1416.67        500.000        3350.29     
  1413.46        500.000        3350.73     
  1410.26        500.000        3346.86     
  1407.05        500.000        3347.30     
  1403.85        500.000        3347.74     
  1400.64        500.000        3348.19     
  1397.44        500.000        3348.63     
  1394.23        500.000        3349.07     
  1391.03        500.000        3349.51     
  1387.82        500.000        3349.95     
  1384.62        500.000        3344.80     
  1381.41        500.000        3345.23     
  1378.21        500.000        3345.67     
  1375.00        500.000        3346.11     
  1371.79        500.000        3346.54     
  1368.59        500.000        3346.98     
  1365.38        500.000        3347.41     
  1362.18        500.000        3347.85     
  1358.97        500.000        3344.32     
  1355.77        500.000        3344.76     
  1352.56        500.000        3345.19     
  1349.36        500.000        3345.62     
  1346.15        500.000        3346.05     
  1342.95        500.000        3346.48     
  1339.74        500.000        3346.92     
  1336.54        500.000        3347.35     
  1333.33        500.000        3344.54     
  1330.13        500.000        3344.97     
  1326.92        500.000        3345.40     
  1323.72        500.000        3345.83     
  1320.51        500.000        3346.26     
  1317.31        500.000        3346.69     
  1314.10        500.000        3347.11     
  1310.90        500.000        3347.54     
  1307.69        500.000        3345.19     
  1304.49        500.000        3345.62     
  1301.28        500.000        3345.41     
  1298.08        500.000        3339.22     
  1294.87        500.000        3339.59     
  1291.67        500.000        3340.01     
  1288.46        500.000        3340.43     
  1285.26        500.000        3340.85     
  1282.05        500.000        3341.06     
  1278.85        500.000        3341.48     
  1275.64        500.000        3341.90     
  1272.44        500.000        3342.33     
  1269.23        500.000        3342.75     
  1266.03        500.000        3343.17     
  1262.82        500.000        3343.59     
  1259.62        500.000        3344.01     
  1256.41        500.000        3344.02     
  1253.21        500.000        3344.44     
  1250.00        500.000        3344.86     
  1246.79        500.000        3345.28     
  1243.59        500.000        3345.70     
  1240.38        500.000        3346.12     
  1237.18        500.000        3346.53     
  1233.97        500.000        3346.95     
  1230.77        500.000        3347.00     
  1227.56        500.000        3347.42     
  1224.36        500.000        3347.83     
  1221.15        500.000        3348.25     
  1217.95        500.000        3348.67     
  1214.74        500.000        3349.08     
  1211.54        500.000        3349.50     
  1208.33        500.000        3349.91     
  1205.13        500.000        3349.99     
  1201.92        500.000        3350.41     
  1198.72        500.000        3350.82     
  1195.51        500.000        3351.24     
  1192.31        500.000        3351.65     
  1189.10        500.000        3352.07     
  1185.90        500.000        3352.48     
  1182.69        500.000        3352.89     
  1179.49        500.000        3353.00     
  1176.28        500.000        3353.41     
  1173.08        500.000        3353.83     
  1169.87        500.000        3354.24     
  1166.67        500.000        3354.65     
  1163.46        500.000        3355.06     
  1160.26        500.000        3355.47     
  1157.05        500.000        3355.89     
  1153.85        500.000        3356.02     
  1150.64        500.000        3356.43     
  1147.44        500.000        3356.84     
  1144.23        500.000        3357.26     
  1141.03        500.000        3357.67     
  1137.82        500.000        3358.08     
  1134.62        500.000        3358.48     
  1131.41        500.000        3358.89     
  1128.21        500.000        3359.06     
  1125.00        500.000        3359.47     
  1121.79        500.000        3359.88     
  1118.59        500.000        3360.29     
  1115.38        500.000        3360.69     
  1112.18        500.000        3361.10     
  1108.97        500.000        3361.51     
  1105.77        500.000        3361.92     
  1102.56        500.000        3362.11     
  1099.36        500.000        3362.52     
  1096.15        500.000        3362.93     
  1092.95        500.000        3363.33     
  1089.74        500.000        3363.74     
  1086.54        500.000        3364.14     
  1083.33        500.000        3364.55     
  1080.13        500.000        3364.95     
  1076.92        500.000        3365.18     
  1073.72        500.000        3365.59     
  1070.51        500.000        3365.99     
  1067.31        500.000        3366.39     
  1064.10        500.000        3366.72     
  1060.90        500.000        3367.11     
  1057.69        500.000        3367.50     
  1054.49        500.000        3367.90     
  1051.28        500.000        3368.26     
  1048.08        500.000        3368.67     
  1044.87        500.000        3369.07     
  1041.67        500.000        3369.47     
  1038.46        500.000        3369.87     
  1035.26        500.000        3370.28     
  1032.05        500.000        3370.68     
  1028.85        500.000        3371.08     
  1025.64        500.000        3371.33     
  1022.44        500.000        3371.73     
  1019.23        500.000        3372.14     
  1016.03        500.000        3372.54     
  1012.82        500.000        3372.94     
  1009.62        500.000        3373.34     
  1006.41        500.000        3373.74     
  1003.21        500.000        3374.14     
  1000.00        500.000        3374.41     
