|6.6.6
Archiving\03_Data\DeqLP/QFM_m0.25/T13/T13_6.tab                       
           1
T(K)    
  0.000000000000000E+000
  0.000000000000000E+000
           0
           3
T(K)           P(bar)         rho,kg/m3     
  2000.00        500.000        3284.95     
  1996.79        500.000        3277.31     
  1993.59        500.000        3270.48     
  1990.38        500.000        3264.35     
  1987.18        500.000        3258.82     
  1983.97        500.000        3253.82     
  1980.77        500.000        3249.28     
  1977.56        500.000        3245.14     
  1974.36        500.000        3241.36     
  1971.15        500.000        3232.44     
  1967.95        500.000        3225.06     
  1964.74        500.000        3218.88     
  1961.54        500.000        3213.64     
  1958.33        500.000        3209.15     
  1955.13        500.000        3205.27     
  1951.92        500.000        3201.90     
  1948.72        500.000        3198.96     
  1945.51        500.000        3187.58     
  1942.31        500.000        3180.38     
  1939.10        500.000        3175.48     
  1935.90        500.000        3171.98     
  1932.69        500.000        3169.39     
  1929.49        500.000        3167.44     
  1926.28        500.000        3165.94     
  1923.08        500.000        3164.78     
  1919.87        500.000        3163.04     
  1916.67        500.000        3162.05     
  1913.46        500.000        3161.48     
  1910.26        500.000        3161.17     
  1907.05        500.000        3161.91     
  1903.85        500.000        3162.58     
  1900.64        500.000        3165.04     
  1897.44        500.000        3168.30     
  1894.23        500.000        3172.38     
  1891.03        500.000        3175.86     
  1887.82        500.000        3178.87     
  1884.62        500.000        3181.51     
  1881.41        500.000        3183.85     
  1878.21        500.000        3185.97     
  1875.00        500.000        3187.88     
  1871.79        500.000        3189.64     
  1868.59        500.000        3192.71     
  1865.38        500.000        3195.54     
  1862.18        500.000        3198.14     
  1858.97        500.000        3200.56     
  1855.77        500.000        3202.82     
  1852.56        500.000        3204.93     
  1849.36        500.000        3206.91     
  1846.15        500.000        3208.78     
  1842.95        500.000        3211.53     
  1839.74        500.000        3214.12     
  1836.54        500.000        3216.58     
  1833.33        500.000        3218.92     
  1830.13        500.000        3221.14     
  1826.92        500.000        3223.26     
  1823.72        500.000        3225.29     
  1820.51        500.000        3227.23     
  1817.31        500.000        3229.74     
  1814.10        500.000        3232.15     
  1810.90        500.000        3234.47     
  1807.69        500.000        3236.69     
  1804.49        500.000        3238.84     
  1801.28        500.000        3240.91     
  1798.08        500.000        3242.91     
  1794.87        500.000        3244.84     
  1791.67        500.000        3247.22     
  1788.46        500.000        3249.53     
  1785.26        500.000        3251.76     
  1782.05        500.000        3253.93     
  1778.85        500.000        3256.03     
  1775.64        500.000        3258.07     
  1772.44        500.000        3260.05     
  1769.23        500.000        3261.98     
  1766.03        500.000        3264.19     
  1762.82        500.000        3266.33     
  1759.62        500.000        3268.42     
  1756.41        500.000        3270.45     
  1753.21        500.000        3272.44     
  1750.00        500.000        3274.38     
  1746.79        500.000        3276.27     
  1743.59        500.000        3278.12     
  1740.38        500.000        3280.14     
  1737.18        500.000        3282.12     
  1733.97        500.000        3284.06     
  1730.77        500.000        3285.95     
  1727.56        500.000        3287.81     
  1724.36        500.000        3289.62     
  1721.15        500.000        3291.41     
  1717.95        500.000        3293.15     
  1714.74        500.000        3294.97     
  1711.54        500.000        3296.75     
  1708.33        500.000        3298.50     
  1705.13        500.000        3300.22     
  1701.92        500.000        3301.91     
  1698.72        500.000        3303.57     
  1695.51        500.000        3305.20     
  1692.31        500.000        3306.81     
  1689.10        500.000        3308.41     
  1685.90        500.000        3309.98     
  1682.69        500.000        3311.53     
  1679.49        500.000        3313.06     
  1676.28        500.000        3314.57     
  1673.08        500.000        3316.06     
  1669.87        500.000        3317.52     
  1666.67        500.000        3318.97     
  1663.46        500.000        3320.36     
  1660.26        500.000        3321.73     
  1657.05        500.000        3323.09     
  1653.85        500.000        3324.43     
  1650.64        500.000        3325.76     
  1647.44        500.000        3327.07     
  1644.23        500.000        3328.37     
  1641.03        500.000        3329.65     
  1637.82        500.000        3330.86     
  1634.62        500.000        3332.06     
  1631.41        500.000        3333.25     
  1628.21        500.000        3334.43     
  1625.00        500.000        3335.59     
  1621.79        500.000        3336.75     
  1618.59        500.000        3337.89     
  1615.38        500.000        3339.03     
  1612.18        500.000        3340.11     
  1608.97        500.000        3341.17     
  1605.77        500.000        3342.23     
  1602.56        500.000        3343.28     
  1599.36        500.000        3344.29     
  1596.15        500.000        3343.79     
  1592.95        500.000        3343.34     
  1589.74        500.000        3342.92     
  1586.54        500.000        3342.73     
  1583.33        500.000        3342.56     
  1580.13        500.000        3342.40     
  1576.92        500.000        3342.26     
  1573.72        500.000        3342.13     
  1570.51        500.000        3342.01     
  1567.31        500.000        3341.91     
  1564.10        500.000        3341.81     
  1560.90        500.000        3341.90     
  1557.69        500.000        3342.00     
  1554.49        500.000        3342.10     
  1551.28        500.000        3342.20     
  1548.08        500.000        3342.31     
  1544.87        500.000        3342.43     
  1541.67        500.000        3342.55     
  1538.46        500.000        3342.68     
  1535.26        500.000        3342.88     
  1532.05        500.000        3343.08     
  1528.85        500.000        3343.29     
  1525.64        500.000        3343.50     
  1522.44        500.000        3343.71     
  1519.23        500.000        3343.93     
  1516.03        500.000        3344.15     
  1512.82        500.000        3344.37     
  1509.62        500.000        3344.62     
  1506.41        500.000        3344.86     
  1503.21        500.000        3345.11     
  1500.00        500.000        3345.36     
  1496.79        500.000        3345.62     
  1493.59        500.000        3345.87     
  1490.38        500.000        3346.13     
  1487.18        500.000        3346.39     
  1483.97        500.000        3346.65     
  1480.77        500.000        3346.91     
  1477.56        500.000        3347.17     
  1474.36        500.000        3347.43     
  1471.15        500.000        3347.70     
  1467.95        500.000        3347.96     
  1464.74        500.000        3348.22     
  1461.54        500.000        3348.52     
  1458.33        500.000        3348.89     
  1455.13        500.000        3349.26     
  1451.92        500.000        3349.63     
  1448.72        500.000        3350.00     
  1445.51        500.000        3350.36     
  1442.31        500.000        3350.73     
  1439.10        500.000        3351.10     
  1435.90        500.000        3351.47     
  1432.69        500.000        3351.89     
  1429.49        500.000        3352.30     
  1426.28        500.000        3352.72     
  1423.08        500.000        3353.13     
  1419.87        500.000        3352.52     
  1416.67        500.000        3351.85     
  1413.46        500.000        3351.13     
  1410.26        500.000        3350.50     
  1407.05        500.000        3350.95     
  1403.85        500.000        3351.39     
  1400.64        500.000        3351.83     
  1397.44        500.000        3352.28     
  1394.23        500.000        3352.72     
  1391.03        500.000        3353.16     
  1387.82        500.000        3353.60     
  1384.62        500.000        3347.79     
  1381.41        500.000        3348.23     
  1378.21        500.000        3348.67     
  1375.00        500.000        3349.11     
  1371.79        500.000        3349.54     
  1368.59        500.000        3349.98     
  1365.38        500.000        3350.42     
  1362.18        500.000        3350.86     
  1358.97        500.000        3346.94     
  1355.77        500.000        3347.37     
  1352.56        500.000        3347.80     
  1349.36        500.000        3348.24     
  1346.15        500.000        3348.67     
  1342.95        500.000        3349.10     
  1339.74        500.000        3349.53     
  1336.54        500.000        3349.97     
  1333.33        500.000        3346.81     
  1330.13        500.000        3347.24     
  1326.92        500.000        3347.67     
  1323.72        500.000        3348.10     
  1320.51        500.000        3348.52     
  1317.31        500.000        3348.95     
  1314.10        500.000        3349.38     
  1310.90        500.000        3349.81     
  1307.69        500.000        3347.10     
  1304.49        500.000        3347.53     
  1301.28        500.000        3347.95     
  1298.08        500.000        3348.38     
  1294.87        500.000        3347.38     
  1291.67        500.000        3342.84     
  1288.46        500.000        3343.18     
  1285.26        500.000        3343.61     
  1282.05        500.000        3343.88     
  1278.85        500.000        3344.30     
  1275.64        500.000        3344.72     
  1272.44        500.000        3345.14     
  1269.23        500.000        3345.57     
  1266.03        500.000        3345.99     
  1262.82        500.000        3346.41     
  1259.62        500.000        3346.83     
  1256.41        500.000        3346.67     
  1253.21        500.000        3347.09     
  1250.00        500.000        3347.51     
  1246.79        500.000        3347.93     
  1243.59        500.000        3348.35     
  1240.38        500.000        3348.77     
  1237.18        500.000        3349.19     
  1233.97        500.000        3349.60     
  1230.77        500.000        3349.49     
  1227.56        500.000        3349.91     
  1224.36        500.000        3350.32     
  1221.15        500.000        3350.74     
  1217.95        500.000        3351.16     
  1214.74        500.000        3351.58     
  1211.54        500.000        3351.99     
  1208.33        500.000        3352.41     
  1205.13        500.000        3352.34     
  1201.92        500.000        3352.75     
  1198.72        500.000        3353.17     
  1195.51        500.000        3353.58     
  1192.31        500.000        3354.00     
  1189.10        500.000        3354.41     
  1185.90        500.000        3354.83     
  1182.69        500.000        3355.24     
  1179.49        500.000        3355.21     
  1176.28        500.000        3355.63     
  1173.08        500.000        3356.04     
  1169.87        500.000        3356.45     
  1166.67        500.000        3356.87     
  1163.46        500.000        3357.28     
  1160.26        500.000        3357.69     
  1157.05        500.000        3358.10     
  1153.85        500.000        3358.12     
  1150.64        500.000        3358.53     
  1147.44        500.000        3358.94     
  1144.23        500.000        3359.35     
  1141.03        500.000        3359.76     
  1137.82        500.000        3360.17     
  1134.62        500.000        3360.58     
  1131.41        500.000        3360.99     
  1128.21        500.000        3361.05     
  1125.00        500.000        3361.46     
  1121.79        500.000        3361.86     
  1118.59        500.000        3362.27     
  1115.38        500.000        3362.68     
  1112.18        500.000        3363.09     
  1108.97        500.000        3363.50     
  1105.77        500.000        3363.91     
  1102.56        500.000        3364.00     
  1099.36        500.000        3364.41     
  1096.15        500.000        3364.81     
  1092.95        500.000        3365.22     
  1089.74        500.000        3365.63     
  1086.54        500.000        3366.03     
  1083.33        500.000        3366.44     
  1080.13        500.000        3366.84     
  1076.92        500.000        3366.99     
  1073.72        500.000        3367.39     
  1070.51        500.000        3367.80     
  1067.31        500.000        3368.20     
  1064.10        500.000        3368.48     
  1060.90        500.000        3368.86     
  1057.69        500.000        3369.23     
  1054.49        500.000        3369.64     
  1051.28        500.000        3369.98     
  1048.08        500.000        3370.38     
  1044.87        500.000        3370.78     
  1041.67        500.000        3371.19     
  1038.46        500.000        3371.59     
  1035.26        500.000        3371.99     
  1032.05        500.000        3372.39     
  1028.85        500.000        3372.80     
  1025.64        500.000        3372.97     
  1022.44        500.000        3373.37     
  1019.23        500.000        3373.77     
  1016.03        500.000        3374.17     
  1012.82        500.000        3374.57     
  1009.62        500.000        3374.97     
  1006.41        500.000        3375.37     
  1003.21        500.000        3375.77     
  1000.00        500.000        3375.98     
