|6.6.6
Archiving\03_Data\eqLP/QFM_m5/EETA/EETA_6.tab                             
           1
T(K)    
  0.000000000000000E+000
  0.000000000000000E+000
           0
           3
T(K)           P(bar)         rho,kg/m3     
  2000.00        500.000        6023.78     
  1996.79        500.000        6030.31     
  1993.59        500.000        6036.80     
  1990.38        500.000        6043.24     
  1987.18        500.000        6049.63     
  1983.97        500.000        6055.98     
  1980.77        500.000        6062.28     
  1977.56        500.000        6068.55     
  1974.36        500.000        6074.77     
  1971.15        500.000        6080.74     
  1967.95        500.000        6086.68     
  1964.74        500.000        6092.58     
  1961.54        500.000        6098.45     
  1958.33        500.000        6104.27     
  1955.13        500.000        6110.06     
  1951.92        500.000        6115.82     
  1948.72        500.000        6121.54     
  1945.51        500.000        6127.03     
  1942.31        500.000        6132.50     
  1939.10        500.000        6137.93     
  1935.90        500.000        6143.33     
  1932.69        500.000        6148.71     
  1929.49        500.000        6154.05     
  1926.28        500.000        6159.36     
  1923.08        500.000        6164.64     
  1919.87        500.000        6169.71     
  1916.67        500.000        6174.77     
  1913.46        500.000        6179.79     
  1910.26        500.000        6184.79     
  1907.05        500.000        6189.76     
  1903.85        500.000        6194.71     
  1900.64        500.000        6199.63     
  1897.44        500.000        6204.52     
  1894.23        500.000        6209.23     
  1891.03        500.000        6213.92     
  1887.82        500.000        6218.59     
  1884.62        500.000        6223.23     
  1881.41        500.000        6227.85     
  1878.21        500.000        6232.45     
  1875.00        500.000        6237.03     
  1871.79        500.000        6241.58     
  1868.59        500.000        6245.97     
  1865.38        500.000        6250.33     
  1862.18        500.000        6254.68     
  1858.97        500.000        6259.00     
  1855.77        500.000        6263.31     
  1852.56        500.000        6267.60     
  1849.36        500.000        6271.87     
  1846.15        500.000        6276.12     
  1842.95        500.000        6280.22     
  1839.74        500.000        6284.29     
  1836.54        500.000        6288.36     
  1833.33        500.000        6292.40     
  1830.13        500.000        6296.43     
  1826.92        500.000        6300.44     
  1823.72        500.000        6304.44     
  1820.51        500.000        6308.42     
  1817.31        500.000        6312.25     
  1814.10        500.000        6316.07     
  1810.90        500.000        6319.88     
  1807.69        500.000        6323.67     
  1804.49        500.000        6327.45     
  1801.28        500.000        6331.21     
  1798.08        500.000        6334.96     
  1794.87        500.000        6338.70     
  1791.67        500.000        6342.29     
  1788.46        500.000        6345.88     
  1785.26        500.000        6349.46     
  1782.05        500.000        6353.02     
  1778.85        500.000        6356.57     
  1775.64        500.000        6360.11     
  1772.44        500.000        6363.63     
  1769.23        500.000        6367.15     
  1766.03        500.000        6370.54     
  1762.82        500.000        6373.91     
  1759.62        500.000        6377.28     
  1756.41        500.000        6380.64     
  1753.21        500.000        6383.98     
  1750.00        500.000        6387.32     
  1746.79        500.000        6390.64     
  1743.59        500.000        6393.96     
  1740.38        500.000        6397.15     
  1737.18        500.000        6400.33     
  1733.97        500.000        6403.50     
  1730.77        500.000        6406.67     
  1727.56        500.000        6409.82     
  1724.36        500.000        6412.97     
  1721.15        500.000        6416.11     
  1717.95        500.000        6419.23     
  1714.74        500.000        6422.25     
  1711.54        500.000        6425.25     
  1708.33        500.000        6428.24     
  1705.13        500.000        6431.23     
  1701.92        500.000        6434.21     
  1698.72        500.000        6437.19     
  1695.51        500.000        6440.15     
  1692.31        500.000        6443.11     
  1689.10        500.000        6445.96     
  1685.90        500.000        6448.80     
  1682.69        500.000        6451.63     
  1679.49        500.000        6454.46     
  1676.28        500.000        6457.28     
  1673.08        500.000        6460.10     
  1669.87        500.000        6462.90     
  1666.67        500.000        6465.71     
  1663.46        500.000        6468.40     
  1660.26        500.000        6471.09     
  1657.05        500.000        6473.78     
  1653.85        500.000        6476.46     
  1650.64        500.000        6479.13     
  1647.44        500.000        6481.80     
  1644.23        500.000        6484.47     
  1641.03        500.000        6487.12     
  1637.82        500.000        6489.67     
  1634.62        500.000        6492.22     
  1631.41        500.000        6494.76     
  1628.21        500.000        6497.30     
  1625.00        500.000        6499.83     
  1621.79        500.000        6502.36     
  1618.59        500.000        6504.88     
  1615.38        500.000        6507.40     
  1612.18        500.000        6509.85     
  1608.97        500.000        6512.31     
  1605.77        500.000        6509.08     
  1602.56        500.000        6504.88     
  1599.36        500.000        6500.69     
  1596.15        500.000        6496.54     
  1592.95        500.000        6492.43     
  1589.74        500.000        6488.35     
  1586.54        500.000        6484.44     
  1583.33        500.000        6480.56     
  1580.13        500.000        6476.79     
  1576.92        500.000        5469.41     
  1573.72        500.000        4936.75     
  1570.51        500.000        4607.45     
  1567.31        500.000        4383.78     
  1564.10        500.000        4221.99     
  1560.90        500.000        4109.19     
  1557.69        500.000        4019.19     
  1554.49        500.000        3951.26     
  1551.28        500.000        3896.66     
  1548.08        500.000        3852.59     
  1544.87        500.000        3814.00     
  1541.67        500.000        3779.94     
  1538.46        500.000        3749.67     
  1535.26        500.000        3725.84     
  1532.05        500.000        3704.14     
  1528.85        500.000        3684.31     
  1525.64        500.000        3666.11     
  1522.44        500.000        3649.36     
  1519.23        500.000        3633.90     
  1516.03        500.000        3619.57     
  1512.82        500.000        3606.28     
  1509.62        500.000        3595.13     
  1506.41        500.000        3584.66     
  1503.21        500.000        3573.30     
  1500.00        500.000        3560.28     
  1496.79        500.000        3548.29     
  1493.59        500.000        3537.19     
  1490.38        500.000        3526.88     
  1487.18        500.000        3517.28     
  1483.97        500.000        3507.91     
  1480.77        500.000        3498.69     
  1477.56        500.000        3499.17     
  1474.36        500.000        3483.64     
  1471.15        500.000        3484.11     
  1467.95        500.000        3484.58     
  1464.74        500.000        3485.05     
  1461.54        500.000        3462.34     
  1458.33        500.000        3462.81     
  1455.13        500.000        3463.27     
  1451.92        500.000        3463.74     
  1448.72        500.000        3464.21     
  1445.51        500.000        3464.67     
  1442.31        500.000        3465.14     
  1439.10        500.000        3465.60     
  1435.90        500.000        3438.39     
  1432.69        500.000        3438.85     
  1429.49        500.000        3434.55     
  1426.28        500.000        3425.64     
  1423.08        500.000        3416.49     
  1419.87        500.000        3416.94     
  1416.67        500.000        3417.39     
  1413.46        500.000        3417.84     
  1410.26        500.000        3390.74     
  1407.05        500.000        3391.18     
  1403.85        500.000        3391.62     
  1400.64        500.000        3392.06     
  1397.44        500.000        3374.46     
  1394.23        500.000        3371.25     
  1391.03        500.000        3368.18     
  1387.82        500.000        3368.60     
  1384.62        500.000        3362.70     
  1381.41        500.000        3363.12     
  1378.21        500.000        3363.55     
  1375.00        500.000        3363.98     
  1371.79        500.000        3353.64     
  1368.59        500.000        3351.34     
  1365.38        500.000        3343.17     
  1362.18        500.000        3343.59     
  1358.97        500.000        3343.50     
  1355.77        500.000        3343.91     
  1352.56        500.000        3344.33     
  1349.36        500.000        3344.74     
  1346.15        500.000        3345.16     
  1342.95        500.000        3345.57     
  1339.74        500.000        3345.99     
  1336.54        500.000        3346.40     
  1333.33        500.000        3323.25     
  1330.13        500.000        3323.66     
  1326.92        500.000        3324.07     
  1323.72        500.000        3324.47     
  1320.51        500.000        3312.86     
  1317.31        500.000        3313.26     
  1314.10        500.000        3307.46     
  1310.90        500.000        3304.69     
  1307.69        500.000        3301.94     
  1304.49        500.000        3300.10     
  1301.28        500.000        3298.96     
  1298.08        500.000        3284.63     
  1294.87        500.000        3284.84     
  1291.67        500.000        3285.04     
  1288.46        500.000        3285.36     
  1285.26        500.000        3285.75     
  1282.05        500.000        3286.00     
  1278.85        500.000        3286.39     
  1275.64        500.000        3286.78     
  1272.44        500.000        3287.17     
  1269.23        500.000        3287.56     
  1266.03        500.000        3287.95     
  1262.82        500.000        3288.34     
  1259.62        500.000        3288.73     
  1256.41        500.000        3288.60     
  1253.21        500.000        3288.99     
  1250.00        500.000        3289.38     
  1246.79        500.000        3289.77     
  1243.59        500.000        3290.16     
  1240.38        500.000        3290.54     
  1237.18        500.000        3290.93     
  1233.97        500.000        3291.32     
  1230.77        500.000        3291.27     
  1227.56        500.000        3291.66     
  1224.36        500.000        3292.04     
  1221.15        500.000        3292.43     
  1217.95        500.000        3292.82     
  1214.74        500.000        3293.20     
  1211.54        500.000        3293.59     
  1208.33        500.000        3293.98     
  1205.13        500.000        3294.00     
  1201.92        500.000        3294.38     
  1198.72        500.000        3294.77     
  1195.51        500.000        3295.15     
  1192.31        500.000        3295.54     
  1189.10        500.000        3295.92     
  1185.90        500.000        3296.30     
  1182.69        500.000        3296.69     
  1179.49        500.000        3296.77     
  1176.28        500.000        3297.16     
  1173.08        500.000        3297.54     
  1169.87        500.000        3297.92     
  1166.67        500.000        3298.30     
  1163.46        500.000        3298.69     
  1160.26        500.000        3299.07     
  1157.05        500.000        3299.45     
  1153.85        500.000        3299.59     
  1150.64        500.000        3299.97     
  1147.44        500.000        3300.35     
  1144.23        500.000        3300.73     
  1141.03        500.000        3301.11     
  1137.82        500.000        3301.49     
  1134.62        500.000        3301.87     
  1131.41        500.000        3302.25     
  1128.21        500.000        3302.43     
  1125.00        500.000        3302.80     
  1121.79        500.000        3303.18     
  1118.59        500.000        3303.56     
  1115.38        500.000        3303.94     
  1112.18        500.000        3304.32     
  1108.97        500.000        3304.69     
  1105.77        500.000        3305.07     
  1102.56        500.000        3305.30     
  1099.36        500.000        3305.67     
  1096.15        500.000        3306.05     
  1092.95        500.000        3306.42     
  1089.74        500.000        3306.75     
  1086.54        500.000        3307.12     
  1083.33        500.000        3307.46     
  1080.13        500.000        3307.82     
  1076.92        500.000        3308.18     
  1073.72        500.000        3308.55     
  1070.51        500.000        3308.93     
  1067.31        500.000        3309.30     
  1064.10        500.000        3309.68     
  1060.90        500.000        3310.05     
  1057.69        500.000        3310.43     
  1054.49        500.000        3310.80     
  1051.28        500.000        3311.04     
  1048.08        500.000        3311.41     
  1044.87        500.000        3311.79     
  1041.67        500.000        3312.16     
  1038.46        500.000        3312.53     
  1035.26        500.000        3312.91     
  1032.05        500.000        3313.28     
  1028.85        500.000        3313.65     
  1025.64        500.000        3313.89     
  1022.44        500.000        3314.26     
  1019.23        500.000        3314.63     
  1016.03        500.000        3315.00     
  1012.82        500.000        3315.37     
  1009.62        500.000        3315.74     
  1006.41        500.000        3316.11     
  1003.21        500.000        3316.48     
  1000.00        500.000        3316.72     
