|6.6.6
Archiving\03_Data\eqfracLP/QFM_m0.5/LAR/LAR_4.tab                         
           1
T(K)    
  0.000000000000000E+000
  0.000000000000000E+000
           0
           3
T(K)           P(bar)         Sp(TH),m3     
  1391.03        500.000       0.944193E-004
  1390.05        500.000       0.350727E-005
  1389.07        500.000       0.354244E-005
  1388.09        500.000       0.340649E-005
  1387.11        500.000                 NaN
  1386.13        500.000                 NaN
  1385.15        500.000       0.136250E-004
  1384.17        500.000                 NaN
  1383.19        500.000                 NaN
  1382.21        500.000                 NaN
  1381.23        500.000       0.144416E-004
  1380.25        500.000                 NaN
  1379.27        500.000                 NaN
  1378.29        500.000                 NaN
  1377.31        500.000                 NaN
  1376.33        500.000                 NaN
  1375.35        500.000                 NaN
  1374.37        500.000                 NaN
  1373.39        500.000                 NaN
  1372.41        500.000                 NaN
  1371.43        500.000                 NaN
  1370.45        500.000                 NaN
  1369.47        500.000                 NaN
  1368.49        500.000                 NaN
  1367.51        500.000                 NaN
  1366.53        500.000                 NaN
  1365.55        500.000                 NaN
  1364.57        500.000                 NaN
  1363.59        500.000                 NaN
  1362.61        500.000                 NaN
  1361.63        500.000                 NaN
  1360.65        500.000                 NaN
  1359.67        500.000                 NaN
  1358.69        500.000                 NaN
  1357.71        500.000                 NaN
  1356.73        500.000                 NaN
  1355.75        500.000                 NaN
  1354.77        500.000                 NaN
  1353.79        500.000                 NaN
  1352.81        500.000                 NaN
  1351.83        500.000                 NaN
  1350.85        500.000                 NaN
  1349.87        500.000       0.253872E-005
  1348.89        500.000                 NaN
  1347.91        500.000                 NaN
  1346.93        500.000                 NaN
  1345.95        500.000                 NaN
  1344.97        500.000                 NaN
  1343.99        500.000                 NaN
  1343.01        500.000                 NaN
  1342.03        500.000                 NaN
  1341.05        500.000                 NaN
  1340.07        500.000                 NaN
  1339.09        500.000                 NaN
  1338.11        500.000                 NaN
  1337.13        500.000                 NaN
  1336.15        500.000                 NaN
  1335.17        500.000                 NaN
  1334.19        500.000                 NaN
  1333.21        500.000                 NaN
  1332.23        500.000                 NaN
  1331.25        500.000                 NaN
  1330.27        500.000                 NaN
  1329.29        500.000                 NaN
  1328.31        500.000                 NaN
  1327.33        500.000                 NaN
  1326.35        500.000                 NaN
  1325.37        500.000                 NaN
  1324.39        500.000                 NaN
  1323.41        500.000                 NaN
  1322.43        500.000                 NaN
  1321.45        500.000                 NaN
  1320.47        500.000                 NaN
  1319.49        500.000                 NaN
  1318.51        500.000                 NaN
  1317.53        500.000                 NaN
  1316.55        500.000                 NaN
  1315.57        500.000                 NaN
  1314.59        500.000                 NaN
  1313.61        500.000                 NaN
  1312.63        500.000                 NaN
  1311.65        500.000                 NaN
  1310.67        500.000                 NaN
  1309.69        500.000                 NaN
  1308.71        500.000                 NaN
  1307.73        500.000                 NaN
  1306.75        500.000                 NaN
  1305.77        500.000                 NaN
  1304.79        500.000                 NaN
  1303.81        500.000                 NaN
  1302.83        500.000                 NaN
  1301.85        500.000                 NaN
  1300.87        500.000                 NaN
  1299.89        500.000                 NaN
  1298.91        500.000                 NaN
  1297.93        500.000                 NaN
  1296.95        500.000                 NaN
  1295.97        500.000                 NaN
  1294.99        500.000                 NaN
  1294.01        500.000                 NaN
  1293.03        500.000                 NaN
  1292.05        500.000                 NaN
  1291.07        500.000                 NaN
  1290.09        500.000                 NaN
  1289.11        500.000                 NaN
  1288.13        500.000                 NaN
  1287.15        500.000                 NaN
  1286.17        500.000                 NaN
  1285.19        500.000                 NaN
  1284.21        500.000                 NaN
  1283.23        500.000                 NaN
  1282.25        500.000                 NaN
  1281.27        500.000                 NaN
  1280.29        500.000                 NaN
  1279.31        500.000                 NaN
  1278.33        500.000                 NaN
  1277.35        500.000                 NaN
  1276.37        500.000                 NaN
  1275.39        500.000                 NaN
  1274.41        500.000                 NaN
  1273.43        500.000                 NaN
  1272.45        500.000                 NaN
  1271.47        500.000                 NaN
  1270.49        500.000                 NaN
  1269.51        500.000       0.132825E-002
  1268.53        500.000       0.150267E-002
  1267.55        500.000       0.131708E-002
  1266.57        500.000       0.113388E-002
  1265.59        500.000       0.974058E-003
  1264.61        500.000       0.844096E-003
  1263.63        500.000       0.736777E-003
  1262.65        500.000       0.648289E-003
  1261.67        500.000       0.575586E-003
  1260.69        500.000       0.514184E-003
  1259.71        500.000       0.462824E-003
  1258.73        500.000       0.418912E-003
  1257.75        500.000       0.381233E-003
  1256.77        500.000       0.348316E-003
  1255.79        500.000       0.319572E-003
  1254.81        500.000       0.294869E-003
  1253.83        500.000       0.273194E-003
  1252.85        500.000       0.253189E-003
  1251.87        500.000       0.236120E-003
  1250.89        500.000       0.220361E-003
  1249.91        500.000       0.206371E-003
  1248.93        500.000       0.193605E-003
  1247.95        500.000       0.182028E-003
  1246.97        500.000       0.171847E-003
  1245.99        500.000       0.162236E-003
  1245.01        500.000       0.153447E-003
  1244.03        500.000       0.145100E-003
  1243.05        500.000       0.137564E-003
  1242.07        500.000       0.130930E-003
  1241.09        500.000       0.124365E-003
  1240.11        500.000       0.118419E-003
  1239.13        500.000       0.112864E-003
  1238.15        500.000       0.107686E-003
  1237.17        500.000       0.102762E-003
  1236.19        500.000       0.980338E-004
  1235.21        500.000       0.939208E-004
  1234.23        500.000       0.450077E-004
  1233.25        500.000       0.413360E-004
  1232.27        500.000       0.395589E-004
  1231.29        500.000       0.378894E-004
  1230.31        500.000       0.363037E-004
  1229.33        500.000       0.345181E-004
  1228.35        500.000       0.331539E-004
  1227.37        500.000       0.790432E-004
  1226.39        500.000                 NaN
  1225.41        500.000       0.113828E-004
  1224.43        500.000       0.275105E-004
  1223.45        500.000       0.263818E-004
  1222.47        500.000                 NaN
  1221.49        500.000       0.455432E-004
  1220.51        500.000       0.930262E-004
  1219.53        500.000       0.124338E-003
  1218.55        500.000       0.669648E-004
  1217.57        500.000       0.594500E-004
  1216.59        500.000                 NaN
  1215.61        500.000                 NaN
  1214.63        500.000                 NaN
  1213.65        500.000                 NaN
  1212.67        500.000                 NaN
  1211.69        500.000                 NaN
  1210.71        500.000                 NaN
  1209.73        500.000                 NaN
  1208.75        500.000                 NaN
  1207.77        500.000                 NaN
  1206.79        500.000                 NaN
  1205.81        500.000                 NaN
  1204.83        500.000                 NaN
  1203.85        500.000                 NaN
  1202.87        500.000                 NaN
  1201.89        500.000                 NaN
  1200.91        500.000                 NaN
  1199.93        500.000                 NaN
  1198.95        500.000                 NaN
  1197.97        500.000                 NaN
  1196.99        500.000                 NaN
  1196.01        500.000                 NaN
  1195.02        500.000                 NaN
  1194.04        500.000                 NaN
  1193.06        500.000                 NaN
  1192.08        500.000                 NaN
  1191.10        500.000       0.444195E-004
  1190.12        500.000                 NaN
  1189.14        500.000                 NaN
  1188.16        500.000                 NaN
  1187.18        500.000                 NaN
  1186.20        500.000                 NaN
  1185.22        500.000                 NaN
  1184.24        500.000       0.436699E-003
  1183.26        500.000       0.122536E-003
  1182.28        500.000       0.122264E-003
  1181.30        500.000       0.121992E-003
  1180.32        500.000       0.121723E-003
  1179.34        500.000       0.120436E-003
  1178.36        500.000       0.120175E-003
  1177.38        500.000       0.119907E-003
  1176.40        500.000       0.119556E-003
  1175.42        500.000       0.121275E-003
  1174.44        500.000       0.118881E-003
  1173.46        500.000       0.118623E-003
  1172.48        500.000       0.117967E-003
  1171.50        500.000       0.118093E-003
  1170.52        500.000       0.117872E-003
  1169.54        500.000       0.117606E-003
  1168.56        500.000       0.118231E-003
  1167.58        500.000       0.117101E-003
  1166.60        500.000       0.118027E-003
  1165.62        500.000       0.116585E-003
  1164.64        500.000       0.116525E-003
  1163.66        500.000       0.117173E-003
  1162.68        500.000       0.116875E-003
  1161.70        500.000       0.116610E-003
  1160.72        500.000       0.115787E-003
  1159.74        500.000       0.115140E-003
  1158.76        500.000       0.115794E-003
  1157.78        500.000       0.114597E-003
  1156.80        500.000       0.115284E-003
  1155.82        500.000       0.114997E-003
  1154.84        500.000       0.114748E-003
  1153.86        500.000       0.113579E-003
  1152.88        500.000       0.114220E-003
  1151.90        500.000       0.115248E-003
  1150.92        500.000       0.115021E-003
  1149.94        500.000       0.114764E-003
  1148.96        500.000       0.113230E-003
  1147.98        500.000       0.112950E-003
  1147.00        500.000       0.113947E-003
  1146.02        500.000       0.112452E-003
  1145.04        500.000       0.112202E-003
  1144.06        500.000       0.112018E-003
  1143.08        500.000       0.111379E-003
  1142.10        500.000       0.111781E-003
  1141.12        500.000                 NaN
  1140.14        500.000                 NaN
  1139.16        500.000       0.568236E-004
  1138.18        500.000                 NaN
  1137.20        500.000                 NaN
  1136.22        500.000                 NaN
  1135.24        500.000                 NaN
  1134.26        500.000                 NaN
  1133.28        500.000                 NaN
  1132.30        500.000                 NaN
  1131.32        500.000                 NaN
  1130.34        500.000                 NaN
  1129.36        500.000                 NaN
  1128.38        500.000                 NaN
  1127.40        500.000                 NaN
  1126.42        500.000                 NaN
  1125.44        500.000                 NaN
  1124.46        500.000                 NaN
  1123.48        500.000                 NaN
  1122.50        500.000                 NaN
  1121.52        500.000                 NaN
  1120.54        500.000                 NaN
  1119.56        500.000                 NaN
  1118.58        500.000                 NaN
  1117.60        500.000                 NaN
  1116.62        500.000                 NaN
  1115.64        500.000                 NaN
  1114.66        500.000                 NaN
  1113.68        500.000                 NaN
  1112.70        500.000                 NaN
  1111.72        500.000                 NaN
  1110.74        500.000                 NaN
  1109.76        500.000                 NaN
  1108.78        500.000                 NaN
  1107.80        500.000                 NaN
  1106.82        500.000                 NaN
  1105.84        500.000                 NaN
  1104.86        500.000                 NaN
  1103.88        500.000                 NaN
  1102.90        500.000                 NaN
  1101.92        500.000                 NaN
  1100.94        500.000                 NaN
  1099.96        500.000                 NaN
  1098.98        500.000                 NaN
  1098.00        500.000                 NaN
  1097.02        500.000                 NaN
  1096.04        500.000                 NaN
  1095.06        500.000                 NaN
  1094.08        500.000                 NaN
  1093.10        500.000                 NaN
  1092.12        500.000                 NaN
  1091.14        500.000                 NaN
  1090.16        500.000                 NaN
  1089.18        500.000                 NaN
  1088.20        500.000                 NaN
  1087.22        500.000                 NaN
  1086.24        500.000                 NaN
  1085.26        500.000                 NaN
  1084.28        500.000                 NaN
  1083.30        500.000                 NaN
  1082.32        500.000                 NaN
  1081.34        500.000                 NaN
  1080.36        500.000                 NaN
  1079.38        500.000                 NaN
  1078.40        500.000                 NaN
  1077.42        500.000                 NaN
  1076.44        500.000                 NaN
  1075.46        500.000                 NaN
  1074.48        500.000                 NaN
  1073.50        500.000                 NaN
  1072.52        500.000                 NaN
  1071.54        500.000                 NaN
  1070.56        500.000                 NaN
  1069.58        500.000                 NaN
  1068.60        500.000                 NaN
  1067.62        500.000                 NaN
  1066.64        500.000                 NaN
  1065.66        500.000                 NaN
  1064.68        500.000                 NaN
  1063.70        500.000                 NaN
  1062.72        500.000                 NaN
  1061.74        500.000                 NaN
  1060.76        500.000                 NaN
  1059.78        500.000                 NaN
  1058.80        500.000                 NaN
  1057.82        500.000                 NaN
  1056.84        500.000                 NaN
  1055.86        500.000                 NaN
  1054.88        500.000                 NaN
  1053.90        500.000                 NaN
  1052.92        500.000                 NaN
  1051.94        500.000                 NaN
  1050.96        500.000                 NaN
  1049.98        500.000                 NaN
  1049.00        500.000                 NaN
  1048.02        500.000                 NaN
  1047.04        500.000                 NaN
  1046.06        500.000                 NaN
  1045.08        500.000                 NaN
  1044.10        500.000                 NaN
  1043.12        500.000                 NaN
  1042.14        500.000                 NaN
  1041.16        500.000                 NaN
  1040.18        500.000                 NaN
  1039.20        500.000                 NaN
  1038.22        500.000                 NaN
  1037.24        500.000                 NaN
  1036.26        500.000                 NaN
  1035.28        500.000                 NaN
  1034.30        500.000                 NaN
  1033.32        500.000                 NaN
  1032.34        500.000                 NaN
  1031.36        500.000                 NaN
  1030.38        500.000                 NaN
  1029.40        500.000                 NaN
  1028.42        500.000                 NaN
  1027.44        500.000                 NaN
  1026.46        500.000                 NaN
  1025.48        500.000                 NaN
  1024.50        500.000                 NaN
  1023.52        500.000                 NaN
  1022.54        500.000                 NaN
  1021.56        500.000                 NaN
  1020.58        500.000                 NaN
  1019.60        500.000                 NaN
  1018.62        500.000                 NaN
  1017.64        500.000                 NaN
  1016.66        500.000                 NaN
  1015.68        500.000                 NaN
  1014.70        500.000                 NaN
  1013.72        500.000                 NaN
  1012.74        500.000                 NaN
  1011.76        500.000                 NaN
  1010.78        500.000                 NaN
  1009.80        500.000                 NaN
  1008.82        500.000                 NaN
  1007.84        500.000                 NaN
  1006.86        500.000                 NaN
  1005.88        500.000                 NaN
  1004.90        500.000                 NaN
  1003.92        500.000                 NaN
  1002.94        500.000                 NaN
  1001.96        500.000                 NaN
  1000.98        500.000                 NaN
  1000.00        500.000                 NaN
