|6.6.6
Archiving\03_Data\fracLP/QFM_m2.75/TIS/TIS_6.tab                          
           1
T(K)    
  0.000000000000000E+000
  0.000000000000000E+000
           0
           3
T(K)           P(bar)         rho,kg/m3     
  2000.00        500.000        3584.12     
  1997.49        500.000        3584.50     
  1994.99        500.000        3584.87     
  1992.48        500.000        3585.25     
  1989.97        500.000        3585.62     
  1987.47        500.000        3586.00     
  1984.96        500.000        3586.37     
  1982.46        500.000        3586.75     
  1979.95        500.000        3587.12     
  1977.44        500.000        3587.50     
  1974.94        500.000        3587.87     
  1972.43        500.000        3588.25     
  1969.92        500.000        3588.62     
  1967.42        500.000        3589.00     
  1964.91        500.000        3589.37     
  1962.41        500.000        3589.75     
  1959.90        500.000        3590.12     
  1957.39        500.000        3590.49     
  1954.89        500.000        3590.87     
  1952.38        500.000        3591.24     
  1949.87        500.000        3591.61     
  1947.37        500.000        3591.99     
  1944.86        500.000        3592.36     
  1942.36        500.000        3592.73     
  1939.85        500.000        3593.11     
  1937.34        500.000        3593.48     
  1934.84        500.000        3593.85     
  1932.33        500.000        3594.22     
  1929.82        500.000        3594.60     
  1927.32        500.000        3594.97     
  1924.81        500.000        3595.34     
  1922.31        500.000        3595.71     
  1919.80        500.000        3596.08     
  1917.29        500.000        3596.46     
  1914.79        500.000        3596.83     
  1912.28        500.000        3597.20     
  1909.77        500.000        3597.57     
  1907.27        500.000        3597.94     
  1904.76        500.000        3598.31     
  1902.26        500.000        3598.68     
  1899.75        500.000        3599.05     
  1897.24        500.000        3599.42     
  1894.74        500.000        3599.79     
  1892.23        500.000        3600.17     
  1889.72        500.000        3600.54     
  1887.22        500.000        3600.91     
  1884.71        500.000        3601.28     
  1882.21        500.000        3601.65     
  1879.70        500.000        3602.02     
  1877.19        500.000        3602.39     
  1874.69        500.000        3602.75     
  1872.18        500.000        3603.12     
  1869.67        500.000        3603.49     
  1867.17        500.000        3603.86     
  1864.66        500.000        3604.23     
  1862.16        500.000        3604.60     
  1859.65        500.000        3604.97     
  1857.14        500.000        3605.34     
  1854.64        500.000        3605.71     
  1852.13        500.000        3606.07     
  1849.62        500.000        3606.44     
  1847.12        500.000        3606.81     
  1844.61        500.000        3607.18     
  1842.11        500.000        3607.55     
  1839.60        500.000        3607.91     
  1837.09        500.000        3608.28     
  1834.59        500.000        3608.65     
  1832.08        500.000        3609.02     
  1829.57        500.000        3609.38     
  1827.07        500.000        3609.75     
  1824.56        500.000        3610.12     
  1822.06        500.000        3610.49     
  1819.55        500.000        3610.85     
  1817.04        500.000        3611.22     
  1814.54        500.000        3611.59     
  1812.03        500.000        3611.95     
  1809.52        500.000        3612.32     
  1807.02        500.000        3612.68     
  1804.51        500.000        3613.05     
  1802.01        500.000        3613.42     
  1799.50        500.000        3613.78     
  1796.99        500.000        3614.15     
  1794.49        500.000        3614.51     
  1791.98        500.000        3614.88     
  1789.47        500.000        3615.24     
  1786.97        500.000        3615.61     
  1784.46        500.000        3615.97     
  1781.95        500.000        3616.34     
  1779.45        500.000        3616.70     
  1776.94        500.000        3617.07     
  1774.44        500.000        3617.43     
  1771.93        500.000        3617.80     
  1769.42        500.000        3618.16     
  1766.92        500.000        3618.53     
  1764.41        500.000        3618.89     
  1761.90        500.000        3619.25     
  1759.40        500.000        3619.62     
  1756.89        500.000        3619.98     
  1754.39        500.000        3620.34     
  1751.88        500.000        3620.71     
  1749.37        500.000        3621.07     
  1746.87        500.000        3621.43     
  1744.36        500.000        3621.80     
  1741.85        500.000        3622.16     
  1739.35        500.000        3622.52     
  1736.84        500.000        3622.89     
  1734.34        500.000        3623.25     
  1731.83        500.000        3623.61     
  1729.32        500.000        3623.97     
  1726.82        500.000        3624.33     
  1724.31        500.000        3624.70     
  1721.80        500.000        3625.06     
  1719.30        500.000        3625.42     
  1716.79        500.000        3625.78     
  1714.29        500.000        3626.14     
  1711.78        500.000        3626.51     
  1709.27        500.000        3626.87     
  1706.77        500.000        3627.23     
  1704.26        500.000        3627.59     
  1701.75        500.000        3627.95     
  1699.25        500.000        3628.31     
  1696.74        500.000        3628.67     
  1694.24        500.000        3629.03     
  1691.73        500.000        3629.39     
  1689.22        500.000        3629.75     
  1686.72        500.000        3630.11     
  1684.21        500.000        3630.47     
  1681.70        500.000        3630.83     
  1679.20        500.000        3631.19     
  1676.69        500.000        3631.55     
  1674.19        500.000        3632.19     
  1671.68        500.000        3640.15     
  1669.17        500.000        3641.52     
  1666.67        500.000        3641.84     
  1664.16        500.000        3642.05     
  1661.65        500.000        3642.37     
  1659.15        500.000        3642.67     
  1656.64        500.000        3544.60     
  1654.14        500.000        4509.32     
  1651.63        500.000        4509.12     
  1649.12        500.000        4510.41     
  1646.62        500.000        3462.86     
  1644.11        500.000        3398.75     
  1641.60        500.000        3400.63     
  1639.10        500.000        3402.88     
  1636.59        500.000        3404.49     
  1634.09        500.000        3406.63     
  1631.58        500.000        3408.98     
  1629.07        500.000        3411.33     
  1626.57        500.000        3414.42     
  1624.06        500.000        3414.24     
  1621.55        500.000        3418.09     
  1619.05        500.000        3419.42     
  1616.54        500.000        3421.76     
  1614.04        500.000        3423.60     
  1611.53        500.000        3426.64     
  1609.02        500.000        3429.26     
  1606.52        500.000        3430.38     
  1604.01        500.000        3433.32     
  1601.50        500.000        3435.33     
  1599.00        500.000        3437.65     
  1596.49        500.000        3439.74     
  1593.98        500.000        3442.28     
  1591.48        500.000        3443.55     
  1588.97        500.000        3445.52     
  1586.47        500.000        3448.56     
  1583.96        500.000        3450.59     
  1581.45        500.000        3452.53     
  1578.95        500.000        3454.38     
  1576.44        500.000        3457.10     
  1573.93        500.000        3459.37     
  1571.43        500.000        3460.83     
  1568.92        500.000        3464.34     
  1566.42        500.000        3464.84     
  1563.91        500.000        3467.55     
  1561.40        500.000        3469.16     
  1558.90        500.000        3471.41     
  1556.39        500.000        3473.20     
  1553.88        500.000        3475.42     
  1551.38        500.000        3478.57     
  1548.87        500.000        3480.46     
  1546.37        500.000        3481.80     
  1543.86        500.000        3483.53     
  1541.35        500.000        3485.36     
  1538.85        500.000        3488.96     
  1536.34        500.000        3489.93     
  1533.83        500.000        3493.00     
  1531.33        500.000        3494.77     
  1528.82        500.000        3498.90     
  1526.32        500.000        3498.07     
  1523.81        500.000        3500.78     
  1521.30        500.000        3502.65     
  1518.80        500.000        3504.00     
  1516.29        500.000        3507.12     
  1513.78        500.000        3509.33     
  1511.28        500.000        4534.60     
  1508.77        500.000        3513.29     
  1506.27        500.000        3519.14     
  1503.76        500.000        3546.02     
  1501.25        500.000        3356.08     
  1498.75        500.000        3322.47     
  1496.24        500.000        3322.75     
  1493.73        500.000        3323.76     
  1491.23        500.000        3325.66     
  1488.72        500.000        3326.69     
  1486.22        500.000        3322.90     
  1483.71        500.000        3313.22     
  1481.20        500.000        3315.61     
  1478.70        500.000        3316.41     
  1476.19        500.000        3318.83     
  1473.68        500.000        3320.17     
  1471.18        500.000        3321.56     
  1468.67        500.000        3310.83     
  1466.17        500.000        3302.79     
  1463.66        500.000        3305.37     
  1461.15        500.000        3307.68     
  1458.65        500.000        3310.16     
  1456.14        500.000        3312.54     
  1453.63        500.000        3315.03     
  1451.13        500.000        3316.90     
  1448.62        500.000        3319.88     
  1446.12        500.000        3322.40     
  1443.61        500.000        3324.86     
  1441.10        500.000        3327.35     
  1438.60        500.000        3329.87     
  1436.09        500.000        3332.94     
  1433.58        500.000        3335.03     
  1431.08        500.000        3337.59     
  1428.57        500.000        3340.11     
  1426.07        500.000        3342.62     
  1423.56        500.000        3345.35     
  1421.05        500.000        3347.87     
  1418.55        500.000        3350.60     
  1416.04        500.000        3353.35     
  1413.53        500.000        3355.94     
  1411.03        500.000        3358.61     
  1408.52        500.000        3361.51     
  1406.02        500.000        3364.13     
  1403.51        500.000        3200.11     
  1401.00        500.000        3170.65     
  1398.50        500.000        3174.20     
  1395.99        500.000        3177.21     
  1393.48        500.000        3181.55     
  1390.98        500.000        3185.05     
  1388.47        500.000        3188.73     
  1385.96        500.000        3192.33     
  1383.46        500.000        3196.12     
  1380.95        500.000        3199.74     
  1378.45        500.000        3203.45     
  1375.94        500.000        3207.36     
  1373.43        500.000        3210.85     
  1370.93        500.000        3215.04     
  1368.42        500.000        3249.29     
  1365.91        500.000        3256.02     
  1363.41        500.000        3259.82     
  1360.90        500.000        3263.96     
  1358.40        500.000        3267.60     
  1355.89        500.000        3271.95     
  1353.38        500.000        3275.28     
  1350.88        500.000        3279.52     
  1348.37        500.000        3282.85     
  1345.86        500.000        3287.18     
  1343.36        500.000        3290.87     
  1340.85        500.000        3292.49     
  1338.35        500.000        3298.43     
  1335.84        500.000        3301.87     
  1333.33        500.000        3305.09     
  1330.83        500.000        3307.72     
  1328.32        500.000        3312.22     
  1325.81        500.000        3325.65     
  1323.31        500.000        3357.70     
  1320.80        500.000        3360.39     
  1318.30        500.000        3363.43     
  1315.79        500.000        3365.71     
  1313.28        500.000        3367.80     
  1310.78        500.000        3369.73     
  1308.27        500.000        3372.34     
  1305.76        500.000        3374.18     
  1303.26        500.000        3375.72     
  1300.75        500.000        3378.68     
  1298.25        500.000        3380.05     
  1295.74        500.000        3381.64     
  1293.23        500.000        3383.36     
  1290.73        500.000        3385.13     
  1288.22        500.000        3386.70     
  1285.71        500.000        3387.86     
  1283.21        500.000        3388.95     
  1280.70        500.000        3390.43     
  1278.20        500.000        3391.33     
  1275.69        500.000        3392.81     
  1273.18        500.000        3393.84     
  1270.68        500.000        3394.21     
  1268.17        500.000        3395.36     
  1265.66        500.000        3396.25     
  1263.16        500.000        2967.96     
  1260.65        500.000        2874.36     
  1258.15        500.000        2877.06     
  1255.64        500.000        2879.14     
  1253.13        500.000        2880.80     
  1250.63        500.000        2882.25     
  1248.12        500.000        2883.44     
  1245.61        500.000        2884.13     
  1243.11        500.000        2885.00     
  1240.60        500.000        2885.17     
  1238.10        500.000        2885.42     
  1235.59        500.000        2885.23     
  1233.08        500.000        2885.00     
  1230.58        500.000        2884.33     
  1228.07        500.000        2884.05     
  1225.56        500.000        2883.15     
  1223.06        500.000        2882.66     
  1220.55        500.000        2882.92     
  1218.05        500.000        2747.04     
  1215.54        500.000        2692.08     
  1213.03        500.000        2690.01     
  1210.53        500.000        2688.55     
  1208.02        500.000        2692.33     
  1205.51        500.000        2687.18     
  1203.01        500.000        2681.74     
  1200.50        500.000        2677.54     
  1197.99        500.000        2685.75     
  1195.49        500.000        2664.19     
  1192.98        500.000        2672.32     
  1190.48        500.000        2645.63     
  1187.97        500.000        2632.48     
  1185.46        500.000        2632.59     
  1182.96        500.000        2632.70     
  1180.45        500.000        2632.81     
  1177.94        500.000        2632.99     
  1175.44        500.000        2633.03     
  1172.93        500.000        2633.20     
  1170.43        500.000        2633.25     
  1167.92        500.000        2633.36     
  1165.41        500.000        2633.47     
  1162.91        500.000        2633.58     
  1160.40        500.000        2633.69     
  1157.89        500.000        2633.78     
  1155.39        500.000        2633.91     
  1152.88        500.000        2634.02     
  1150.38        500.000        2634.18     
  1147.87        500.000        2634.24     
  1145.36        500.000        2631.76     
  1142.86        500.000        2631.87     
  1140.35        500.000        2631.98     
  1137.84        500.000        2632.09     
  1135.34        500.000        2632.20     
  1132.83        500.000        2632.31     
  1130.33        500.000        2632.41     
  1127.82        500.000        2632.52     
  1125.31        500.000        2632.63     
  1122.81        500.000        2632.74     
  1120.30        500.000        2632.85     
  1117.79        500.000        2632.96     
  1115.29        500.000        2633.07     
  1112.78        500.000        2633.18     
  1110.28        500.000        2633.08     
  1107.77        500.000        2633.18     
  1105.26        500.000        2633.11     
  1102.76        500.000        2633.22     
  1100.25        500.000        2633.32     
  1097.74        500.000        2633.43     
  1095.24        500.000        2633.23     
  1092.73        500.000        2633.34     
  1090.23        500.000        2633.44     
  1087.72        500.000        2633.55     
  1085.21        500.000        2633.66     
  1082.71        500.000        2633.77     
  1080.20        500.000        2633.62     
  1077.69        500.000        2633.73     
  1075.19        500.000        2633.83     
  1072.68        500.000        2633.94     
  1070.18        500.000        2634.05     
  1067.67        500.000        2634.03     
  1065.16        500.000        2634.14     
  1062.66        500.000        2634.24     
  1060.15        500.000        2634.35     
  1057.64        500.000        2634.27     
  1055.14        500.000        2634.38     
  1052.63        500.000        2634.48     
  1050.13        500.000        2634.59     
  1047.62        500.000        2634.70     
  1045.11        500.000        2634.72     
  1042.61        500.000        2634.82     
  1040.10        500.000        2634.93     
  1037.59        500.000        2635.03     
  1035.09        500.000        2635.06     
  1032.58        500.000        2635.16     
  1030.08        500.000        2635.27     
  1027.57        500.000        2635.30     
  1025.06        500.000        2635.40     
  1022.56        500.000        2635.51     
  1020.05        500.000        2635.54     
  1017.54        500.000        2635.65     
  1015.04        500.000        2635.75     
  1012.53        500.000        2635.86     
  1010.03        500.000        2635.89     
  1007.52        500.000        2636.00     
  1005.01        500.000        2636.03     
  1002.51        500.000        2636.14     
  1000.00        500.000        2636.24     
