|6.6.6
Archiving\03_Data\eqLP/QFM_m2.25/Y98/Y98_6.tab                            
           1
T(K)    
  0.000000000000000E+000
  0.000000000000000E+000
           0
           3
T(K)           P(bar)         rho,kg/m3     
  2000.00        500.000        3600.76     
  1996.79        500.000        3601.24     
  1993.59        500.000        3601.72     
  1990.38        500.000        3602.21     
  1987.18        500.000        3602.69     
  1983.97        500.000        3603.17     
  1980.77        500.000        3603.66     
  1977.56        500.000        3604.14     
  1974.36        500.000        3604.62     
  1971.15        500.000        3605.11     
  1967.95        500.000        3605.59     
  1964.74        500.000        3606.07     
  1961.54        500.000        3606.55     
  1958.33        500.000        3607.03     
  1955.13        500.000        3607.51     
  1951.92        500.000        3608.00     
  1948.72        500.000        3608.48     
  1945.51        500.000        3608.96     
  1942.31        500.000        3609.44     
  1939.10        500.000        3609.92     
  1935.90        500.000        3610.40     
  1932.69        500.000        3610.88     
  1929.49        500.000        3611.36     
  1926.28        500.000        3611.84     
  1923.08        500.000        3612.32     
  1919.87        500.000        3612.79     
  1916.67        500.000        3613.27     
  1913.46        500.000        3613.75     
  1910.26        500.000        3614.23     
  1907.05        500.000        3614.71     
  1903.85        500.000        3615.19     
  1900.64        500.000        3615.66     
  1897.44        500.000        3616.14     
  1894.23        500.000        3616.62     
  1891.03        500.000        3617.09     
  1887.82        500.000        3617.57     
  1884.62        500.000        3618.05     
  1881.41        500.000        3618.52     
  1878.21        500.000        3619.00     
  1875.00        500.000        3619.48     
  1871.79        500.000        3619.95     
  1868.59        500.000        3620.43     
  1865.38        500.000        3620.90     
  1862.18        500.000        3621.38     
  1858.97        500.000        3621.85     
  1855.77        500.000        3622.33     
  1852.56        500.000        3622.80     
  1849.36        500.000        3623.28     
  1846.15        500.000        3623.75     
  1842.95        500.000        3624.22     
  1839.74        500.000        3624.70     
  1836.54        500.000        3625.17     
  1833.33        500.000        3625.64     
  1830.13        500.000        3626.12     
  1826.92        500.000        3626.59     
  1823.72        500.000        3627.06     
  1820.51        500.000        3627.54     
  1817.31        500.000        3628.01     
  1814.10        500.000        3628.48     
  1810.90        500.000        3628.95     
  1807.69        500.000        3629.42     
  1804.49        500.000        3629.89     
  1801.28        500.000        3630.37     
  1798.08        500.000        3630.84     
  1794.87        500.000        3631.31     
  1791.67        500.000        3631.78     
  1788.46        500.000        3632.25     
  1785.26        500.000        3632.72     
  1782.05        500.000        3633.19     
  1778.85        500.000        3633.66     
  1775.64        500.000        3634.13     
  1772.44        500.000        3634.60     
  1769.23        500.000        3635.07     
  1766.03        500.000        3635.54     
  1762.82        500.000        3636.00     
  1759.62        500.000        3636.47     
  1756.41        500.000        3636.94     
  1753.21        500.000        3637.41     
  1750.00        500.000        3637.88     
  1746.79        500.000        3638.34     
  1743.59        500.000        3638.81     
  1740.38        500.000        3639.28     
  1737.18        500.000        3639.75     
  1733.97        500.000        3640.21     
  1730.77        500.000        3640.68     
  1727.56        500.000        3641.15     
  1724.36        500.000        3641.61     
  1721.15        500.000        3642.08     
  1717.95        500.000        3642.54     
  1714.74        500.000        3643.01     
  1711.54        500.000        3643.48     
  1708.33        500.000        3643.94     
  1705.13        500.000        3644.41     
  1701.92        500.000        3644.87     
  1698.72        500.000        3645.34     
  1695.51        500.000        3645.80     
  1692.31        500.000        3646.26     
  1689.10        500.000        3646.73     
  1685.90        500.000        3655.07     
  1682.69        500.000        3667.70     
  1679.49        500.000        3679.98     
  1676.28        500.000        3691.61     
  1673.08        500.000        3702.93     
  1669.87        500.000        3713.95     
  1666.67        500.000        3724.69     
  1663.46        500.000        3734.91     
  1660.26        500.000        3680.66     
  1657.05        500.000        3536.36     
  1653.85        500.000        3526.52     
  1650.64        500.000        3509.86     
  1647.44        500.000        3496.88     
  1644.23        500.000        3486.52     
  1641.03        500.000        3478.07     
  1637.82        500.000        3462.24     
  1634.62        500.000        3450.82     
  1631.41        500.000        3442.23     
  1628.21        500.000        3435.58     
  1625.00        500.000        3430.30     
  1621.79        500.000        3426.02     
  1618.59        500.000        3422.51     
  1615.38        500.000        3419.60     
  1612.18        500.000        3418.08     
  1608.97        500.000        3416.84     
  1605.77        500.000        3415.83     
  1602.56        500.000        3415.01     
  1599.36        500.000        3414.34     
  1596.15        500.000        3413.79     
  1592.95        500.000        3413.36     
  1589.74        500.000        3413.01     
  1586.54        500.000        3413.56     
  1583.33        500.000        3414.10     
  1580.13        500.000        3414.64     
  1576.92        500.000        3415.17     
  1573.72        500.000        3411.40     
  1570.51        500.000        3399.91     
  1567.31        500.000        3390.71     
  1564.10        500.000        3382.83     
  1560.90        500.000        3377.30     
  1557.69        500.000        3372.42     
  1554.49        500.000        3368.07     
  1551.28        500.000        3364.19     
  1548.08        500.000        3360.70     
  1544.87        500.000        3357.57     
  1541.67        500.000        3354.73     
  1538.46        500.000        3352.16     
  1535.26        500.000        3350.58     
  1532.05        500.000        3349.13     
  1528.85        500.000        3347.80     
  1525.64        500.000        3346.58     
  1522.44        500.000        3345.45     
  1519.23        500.000        3344.42     
  1516.03        500.000        3343.46     
  1512.82        500.000        3342.58     
  1509.62        500.000        3342.02     
  1506.41        500.000        3341.50     
  1503.21        500.000        3341.03     
  1500.00        500.000        3340.60     
  1496.79        500.000        3340.26     
  1493.59        500.000        3339.96     
  1490.38        500.000        3340.03     
  1487.18        500.000        3340.24     
  1483.97        500.000        3340.51     
  1480.77        500.000        3340.79     
  1477.56        500.000        3341.08     
  1474.36        500.000        3341.38     
  1471.15        500.000        3341.46     
  1467.95        500.000        3341.05     
  1464.74        500.000        3341.50     
  1461.54        500.000        3340.75     
  1458.33        500.000        3341.20     
  1455.13        500.000        3341.65     
  1451.92        500.000        3342.10     
  1448.72        500.000        3342.55     
  1445.51        500.000        3343.00     
  1442.31        500.000        3343.44     
  1439.10        500.000        3343.89     
  1435.90        500.000        3343.82     
  1432.69        500.000        3340.47     
  1429.49        500.000        3334.31     
  1426.28        500.000        3334.75     
  1423.08        500.000        3325.46     
  1419.87        500.000        3325.90     
  1416.67        500.000        3326.33     
  1413.46        500.000        3326.77     
  1410.26        500.000        3314.89     
  1407.05        500.000        3315.32     
  1403.85        500.000        3315.75     
  1400.64        500.000        3316.17     
  1397.44        500.000        3316.60     
  1394.23        500.000        3317.02     
  1391.03        500.000        3317.45     
  1387.82        500.000        3317.87     
  1384.62        500.000        3303.69     
  1381.41        500.000        3304.11     
  1378.21        500.000        3304.52     
  1375.00        500.000        3304.94     
  1371.79        500.000        3305.36     
  1368.59        500.000        3305.77     
  1365.38        500.000        3306.19     
  1362.18        500.000        3306.60     
  1358.97        500.000        3296.59     
  1355.77        500.000        3297.00     
  1352.56        500.000        3297.41     
  1349.36        500.000        3297.82     
  1346.15        500.000        3298.23     
  1342.95        500.000        3298.64     
  1339.74        500.000        3299.05     
  1336.54        500.000        3299.46     
  1333.33        500.000        3291.06     
  1330.13        500.000        3291.47     
  1326.92        500.000        3291.87     
  1323.72        500.000        3292.28     
  1320.51        500.000        3288.71     
  1317.31        500.000        3288.61     
  1314.10        500.000        3288.92     
  1310.90        500.000        3289.32     
  1307.69        500.000        3289.55     
  1304.49        500.000        3289.95     
  1301.28        500.000        3290.34     
  1298.08        500.000        3290.74     
  1294.87        500.000        3291.14     
  1291.67        500.000        3291.54     
  1288.46        500.000        3291.94     
  1285.26        500.000        3292.34     
  1282.05        500.000        3292.06     
  1278.85        500.000        3292.46     
  1275.64        500.000        3292.85     
  1272.44        500.000        3293.25     
  1269.23        500.000        3293.65     
  1266.03        500.000        3294.04     
  1262.82        500.000        3294.44     
  1259.62        500.000        3294.83     
  1256.41        500.000        3294.62     
  1253.21        500.000        3295.01     
  1250.00        500.000        3295.41     
  1246.79        500.000        3295.80     
  1243.59        500.000        3296.19     
  1240.38        500.000        3296.59     
  1237.18        500.000        3296.98     
  1233.97        500.000        3297.37     
  1230.77        500.000        3297.17     
  1227.56        500.000        3297.56     
  1224.36        500.000        3297.95     
  1221.15        500.000        3298.34     
  1217.95        500.000        3298.74     
  1214.74        500.000        3299.13     
  1211.54        500.000        3299.52     
  1208.33        500.000        3299.91     
  1205.13        500.000        3299.77     
  1201.92        500.000        3300.16     
  1198.72        500.000        3300.55     
  1195.51        500.000        3300.94     
  1192.31        500.000        3301.33     
  1189.10        500.000        3301.72     
  1185.90        500.000        3302.10     
  1182.69        500.000        3302.49     
  1179.49        500.000        3302.39     
  1176.28        500.000        3302.78     
  1173.08        500.000        3303.17     
  1169.87        500.000        3303.55     
  1166.67        500.000        3303.94     
  1163.46        500.000        3304.32     
  1160.26        500.000        3304.71     
  1157.05        500.000        3305.09     
  1153.85        500.000        3305.02     
  1150.64        500.000        3305.40     
  1147.44        500.000        3305.79     
  1144.23        500.000        3306.17     
  1141.03        500.000        3306.55     
  1137.82        500.000        3306.94     
  1134.62        500.000        3307.32     
  1131.41        500.000        3307.70     
  1128.21        500.000        3307.66     
  1125.00        500.000        3308.04     
  1121.79        500.000        3308.42     
  1118.59        500.000        3308.80     
  1115.38        500.000        3309.18     
  1112.18        500.000        3309.57     
  1108.97        500.000        3309.95     
  1105.77        500.000        3310.33     
  1102.56        500.000        3310.31     
  1099.36        500.000        3310.69     
  1096.15        500.000        3311.07     
  1092.95        500.000        3311.45     
  1089.74        500.000        3311.83     
  1086.54        500.000        3312.20     
  1083.33        500.000        3312.58     
  1080.13        500.000        3312.96     
  1076.92        500.000        3312.97     
  1073.72        500.000        3313.35     
  1070.51        500.000        3313.72     
  1067.31        500.000        3314.10     
  1064.10        500.000        3314.48     
  1060.90        500.000        3314.85     
  1057.69        500.000        3315.23     
  1054.49        500.000        3315.60     
  1051.28        500.000        3315.66     
  1048.08        500.000        3316.03     
  1044.87        500.000        3316.41     
  1041.67        500.000        3316.78     
  1038.46        500.000        3317.15     
  1035.26        500.000        3317.53     
  1032.05        500.000        3317.90     
  1028.85        500.000        3318.27     
  1025.64        500.000        3318.29     
  1022.44        500.000        3318.66     
  1019.23        500.000        3319.03     
  1016.03        500.000        3319.40     
  1012.82        500.000        3319.77     
  1009.62        500.000        3320.15     
  1006.41        500.000        3320.52     
  1003.21        500.000        3320.89     
  1000.00        500.000        3320.94     
