|6.6.6
Archiving\03_Data\DeqLP/QFM_m2.75/YM20/YM20_6.tab                       
           1
T(K)    
  0.000000000000000E+000
  0.000000000000000E+000
           0
           3
T(K)           P(bar)         rho,kg/m3     
  2000.00        500.000        8099.88     
  1996.79        500.000        8101.72     
  1993.59        500.000        8103.55     
  1990.38        500.000        8105.38     
  1987.18        500.000        8107.21     
  1983.97        500.000        8109.03     
  1980.77        500.000        8110.86     
  1977.56        500.000        8112.68     
  1974.36        500.000        8114.50     
  1971.15        500.000        8116.32     
  1967.95        500.000        8118.14     
  1964.74        500.000        8119.96     
  1961.54        500.000        8121.78     
  1958.33        500.000        8123.59     
  1955.13        500.000        8125.41     
  1951.92        500.000        8127.22     
  1948.72        500.000        8129.03     
  1945.51        500.000        8130.84     
  1942.31        500.000        8132.64     
  1939.10        500.000        8134.45     
  1935.90        500.000        8136.25     
  1932.69        500.000        8138.06     
  1929.49        500.000        8139.86     
  1926.28        500.000        8141.66     
  1923.08        500.000        8143.46     
  1919.87        500.000        8145.25     
  1916.67        500.000        3279.47     
  1913.46        500.000        3196.98     
  1910.26        500.000        3177.04     
  1907.05        500.000        3170.10     
  1903.85        500.000        3166.29     
  1900.64        500.000        3164.88     
  1897.44        500.000        3164.35     
  1894.23        500.000        3164.99     
  1891.03        500.000        3165.61     
  1887.82        500.000        3166.49     
  1884.62        500.000        3168.33     
  1881.41        500.000        3171.50     
  1878.21        500.000        3174.27     
  1875.00        500.000        3176.73     
  1871.79        500.000        3178.94     
  1868.59        500.000        3181.96     
  1865.38        500.000        3184.71     
  1862.18        500.000        3187.21     
  1858.97        500.000        3189.51     
  1855.77        500.000        3191.63     
  1852.56        500.000        3193.60     
  1849.36        500.000        3195.44     
  1846.15        500.000        3197.17     
  1842.95        500.000        3199.69     
  1839.74        500.000        3202.05     
  1836.54        500.000        3204.28     
  1833.33        500.000        3206.39     
  1830.13        500.000        3208.39     
  1826.92        500.000        3210.29     
  1823.72        500.000        3212.11     
  1820.51        500.000        3213.84     
  1817.31        500.000        3216.06     
  1814.10        500.000        3218.20     
  1810.90        500.000        3220.24     
  1807.69        500.000        3222.20     
  1804.49        500.000        3224.09     
  1801.28        500.000        3225.90     
  1798.08        500.000        3227.65     
  1794.87        500.000        3229.35     
  1791.67        500.000        3231.37     
  1788.46        500.000        3233.32     
  1785.26        500.000        3235.21     
  1782.05        500.000        3237.05     
  1778.85        500.000        3238.83     
  1775.64        500.000        3240.55     
  1772.44        500.000        3242.23     
  1769.23        500.000        3243.86     
  1766.03        500.000        3245.71     
  1762.82        500.000        3247.51     
  1759.62        500.000        3249.26     
  1756.41        500.000        3250.96     
  1753.21        500.000        3252.63     
  1750.00        500.000        3254.26     
  1746.79        500.000        3255.85     
  1743.59        500.000        3257.40     
  1740.38        500.000        3259.04     
  1737.18        500.000        3260.65     
  1733.97        500.000        3262.23     
  1730.77        500.000        3263.77     
  1727.56        500.000        3265.28     
  1724.36        500.000        3266.77     
  1721.15        500.000        3268.22     
  1717.95        500.000        3269.65     
  1714.74        500.000        3271.11     
  1711.54        500.000        3272.56     
  1708.33        500.000        3273.97     
  1705.13        500.000        3275.36     
  1701.92        500.000        3276.73     
  1698.72        500.000        3278.08     
  1695.51        500.000        3279.41     
  1692.31        500.000        3280.71     
  1689.10        500.000        3281.98     
  1685.90        500.000        3283.24     
  1682.69        500.000        3284.47     
  1679.49        500.000        3285.69     
  1676.28        500.000        3286.90     
  1673.08        500.000        3288.09     
  1669.87        500.000        3289.26     
  1666.67        500.000        3290.42     
  1663.46        500.000        3291.52     
  1660.26        500.000        3292.61     
  1657.05        500.000        3293.68     
  1653.85        500.000        3294.75     
  1650.64        500.000        3295.80     
  1647.44        500.000        3296.85     
  1644.23        500.000        3297.88     
  1641.03        500.000        3298.90     
  1637.82        500.000        3299.86     
  1634.62        500.000        3300.81     
  1631.41        500.000        3301.75     
  1628.21        500.000        3302.68     
  1625.00        500.000        3303.61     
  1621.79        500.000        3304.52     
  1618.59        500.000        3305.43     
  1615.38        500.000        3306.34     
  1612.18        500.000        3305.77     
  1608.97        500.000        3304.67     
  1605.77        500.000        3303.75     
  1602.56        500.000        3302.88     
  1599.36        500.000        3302.23     
  1596.15        500.000        3301.61     
  1592.95        500.000        3301.03     
  1589.74        500.000        3300.48     
  1586.54        500.000        3300.20     
  1583.33        500.000        3299.93     
  1580.13        500.000        3299.67     
  1576.92        500.000        3299.44     
  1573.72        500.000        3299.22     
  1570.51        500.000        3299.02     
  1567.31        500.000        3298.83     
  1564.10        500.000        3298.66     
  1560.90        500.000        3298.66     
  1557.69        500.000        3298.67     
  1554.49        500.000        3298.68     
  1551.28        500.000        3298.71     
  1548.08        500.000        3298.74     
  1544.87        500.000        3298.78     
  1541.67        500.000        3298.82     
  1538.46        500.000        3298.87     
  1535.26        500.000        3299.01     
  1532.05        500.000        3299.14     
  1528.85        500.000        3299.28     
  1525.64        500.000        3299.43     
  1522.44        500.000        3299.58     
  1519.23        500.000        3299.74     
  1516.03        500.000        3299.89     
  1512.82        500.000        3300.06     
  1509.62        500.000        3300.26     
  1506.41        500.000        3300.46     
  1503.21        500.000        3300.66     
  1500.00        500.000        3300.87     
  1496.79        500.000        3301.09     
  1493.59        500.000        3301.30     
  1490.38        500.000        3301.52     
  1487.18        500.000        3301.74     
  1483.97        500.000        3301.98     
  1480.77        500.000        3302.23     
  1477.56        500.000        3302.47     
  1474.36        500.000        3302.72     
  1471.15        500.000        3303.05     
  1467.95        500.000        3303.38     
  1464.74        500.000        3303.76     
  1461.54        500.000        3304.14     
  1458.33        500.000        3304.55     
  1455.13        500.000        3304.96     
  1451.92        500.000        3305.37     
  1448.72        500.000        3305.78     
  1445.51        500.000        3304.58     
  1442.31        500.000        3302.73     
  1439.10        500.000        3303.17     
  1435.90        500.000        3300.03     
  1432.69        500.000        3300.47     
  1429.49        500.000        3300.91     
  1426.28        500.000        3301.34     
  1423.08        500.000        3301.78     
  1419.87        500.000        3302.22     
  1416.67        500.000        3302.66     
  1413.46        500.000        3303.09     
  1410.26        500.000        3295.28     
  1407.05        500.000        3295.72     
  1403.85        500.000        3296.15     
  1400.64        500.000        3296.58     
  1397.44        500.000        3297.01     
  1394.23        500.000        3297.44     
  1391.03        500.000        3297.87     
  1387.82        500.000        3298.30     
  1384.62        500.000        3293.95     
  1381.41        500.000        3294.37     
  1378.21        500.000        3294.80     
  1375.00        500.000        3295.23     
  1371.79        500.000        3295.65     
  1368.59        500.000        3296.08     
  1365.38        500.000        3296.51     
  1362.18        500.000        3296.93     
  1358.97        500.000        3293.70     
  1355.77        500.000        3294.12     
  1352.56        500.000        3294.55     
  1349.36        500.000        3294.97     
  1346.15        500.000        3295.39     
  1342.95        500.000        3295.82     
  1339.74        500.000        3296.24     
  1336.54        500.000        3296.66     
  1333.33        500.000        3293.98     
  1330.13        500.000        3294.40     
  1326.92        500.000        3294.82     
  1323.72        500.000        3295.24     
  1320.51        500.000        3295.66     
  1317.31        500.000        3296.08     
  1314.10        500.000        3296.50     
  1310.90        500.000        3296.91     
  1307.69        500.000        3294.61     
  1304.49        500.000        3295.03     
  1301.28        500.000        3294.82     
  1298.08        500.000        3289.88     
  1294.87        500.000        3290.24     
  1291.67        500.000        3290.66     
  1288.46        500.000        3291.07     
  1285.26        500.000        3291.49     
  1282.05        500.000        3291.67     
  1278.85        500.000        3292.08     
  1275.64        500.000        3292.50     
  1272.44        500.000        3292.91     
  1269.23        500.000        3293.32     
  1266.03        500.000        3293.73     
  1262.82        500.000        3294.14     
  1259.62        500.000        3294.55     
  1256.41        500.000        3294.54     
  1253.21        500.000        3294.95     
  1250.00        500.000        3295.36     
  1246.79        500.000        3295.77     
  1243.59        500.000        3296.18     
  1240.38        500.000        3296.59     
  1237.18        500.000        3297.00     
  1233.97        500.000        3297.41     
  1230.77        500.000        3297.43     
  1227.56        500.000        3297.83     
  1224.36        500.000        3298.24     
  1221.15        500.000        3298.65     
  1217.95        500.000        3299.06     
  1214.74        500.000        3299.46     
  1211.54        500.000        3299.87     
  1208.33        500.000        3300.28     
  1205.13        500.000        3300.33     
  1201.92        500.000        3300.74     
  1198.72        500.000        3301.14     
  1195.51        500.000        3301.55     
  1192.31        500.000        3301.95     
  1189.10        500.000        3302.36     
  1185.90        500.000        3302.76     
  1182.69        500.000        3303.17     
  1179.49        500.000        3303.24     
  1176.28        500.000        3303.64     
  1173.08        500.000        3304.04     
  1169.87        500.000        3304.45     
  1166.67        500.000        3304.85     
  1163.46        500.000        3305.25     
  1160.26        500.000        3305.65     
  1157.05        500.000        3306.06     
  1153.85        500.000        3306.16     
  1150.64        500.000        3306.57     
  1147.44        500.000        3306.97     
  1144.23        500.000        3307.37     
  1141.03        500.000        3307.77     
  1137.82        500.000        3308.17     
  1134.62        500.000        3308.57     
  1131.41        500.000        3308.97     
  1128.21        500.000        3309.10     
  1125.00        500.000        3309.50     
  1121.79        500.000        3309.90     
  1118.59        500.000        3310.30     
  1115.38        500.000        3310.70     
  1112.18        500.000        3311.10     
  1108.97        500.000        3311.49     
  1105.77        500.000        3311.89     
  1102.56        500.000        3312.06     
  1099.36        500.000        3312.46     
  1096.15        500.000        3312.85     
  1092.95        500.000        3313.25     
  1089.74        500.000        3313.64     
  1086.54        500.000        3314.04     
  1083.33        500.000        3314.44     
  1080.13        500.000        3314.83     
  1076.92        500.000        3315.03     
  1073.72        500.000        3315.43     
  1070.51        500.000        3315.78     
  1067.31        500.000        3316.15     
  1064.10        500.000        3316.53     
  1060.90        500.000        3316.90     
  1057.69        500.000        3317.26     
  1054.49        500.000        3317.66     
  1051.28        500.000        3318.01     
  1048.08        500.000        3318.40     
  1044.87        500.000        3318.80     
  1041.67        500.000        3319.19     
  1038.46        500.000        3319.58     
  1035.26        500.000        3319.97     
  1032.05        500.000        3320.37     
  1028.85        500.000        3320.76     
  1025.64        500.000        3320.99     
  1022.44        500.000        3321.38     
  1019.23        500.000        3321.77     
  1016.03        500.000        3322.16     
  1012.82        500.000        3322.55     
  1009.62        500.000        3322.94     
  1006.41        500.000        3323.33     
  1003.21        500.000        3323.72     
  1000.00        500.000        3323.97     
