|6.6.6
Archiving\03_Data\DeqfracLP/QFM_m3/WD94/WD94_6.tab                        
           1
T(K)    
  0.000000000000000E+000
  0.000000000000000E+000
           0
           3
T(K)           P(bar)         rho,kg/m3     
  1602.56        500.000        3263.71     
  1601.05        500.000        3239.23     
  1599.54        500.000        3245.17     
  1598.03        500.000        3244.77     
  1596.52        500.000        3245.88     
  1595.01        500.000        3246.07     
  1593.50        500.000        3246.79     
  1591.99        500.000        3246.92     
  1590.48        500.000        3247.54     
  1588.97        500.000        3247.81     
  1587.46        500.000        3248.54     
  1585.95        500.000        3248.78     
  1584.44        500.000        3249.41     
  1582.93        500.000        3248.81     
  1581.42        500.000        3250.73     
  1579.91        500.000        3251.01     
  1578.40        500.000        3253.58     
  1576.89        500.000        3357.37     
  1575.38        500.000        3255.91     
  1573.87        500.000        3253.31     
  1572.36        500.000        3254.68     
  1570.85        500.000        3253.37     
  1569.34        500.000        3254.27     
  1567.83        500.000        3255.02     
  1566.32        500.000        3255.59     
  1564.81        500.000        3256.03     
  1563.30        500.000        3256.52     
  1561.79        500.000        3256.81     
  1560.28        500.000        3257.95     
  1558.76        500.000        3257.98     
  1557.25        500.000        3257.76     
  1555.74        500.000        3258.71     
  1554.23        500.000        3259.28     
  1552.72        500.000        3260.01     
  1551.21        500.000        3262.09     
  1549.70        500.000        3260.06     
  1548.19        500.000        3261.71     
  1546.68        500.000        3261.65     
  1545.17        500.000        3276.29     
  1543.66        500.000        3260.29     
  1542.15        500.000        3261.63     
  1540.64        500.000        3269.80     
  1539.13        500.000        3264.83     
  1537.62        500.000        3263.36     
  1536.11        500.000        3262.08     
  1534.60        500.000        3266.86     
  1533.09        500.000        3263.84     
  1531.58        500.000        3264.85     
  1530.07        500.000        3295.39     
  1528.56        500.000        3266.06     
  1527.05        500.000        3266.14     
  1525.54        500.000        3267.02     
  1524.03        500.000        3267.61     
  1522.52        500.000        3268.56     
  1521.01        500.000        3269.20     
  1519.50        500.000        3269.80     
  1517.99        500.000        3270.16     
  1516.48        500.000        3270.27     
  1514.97        500.000        3271.10     
  1513.46        500.000        3272.78     
  1511.95        500.000        3272.29     
  1510.44        500.000        3273.87     
  1508.93        500.000        3274.26     
  1507.42        500.000        3274.77     
  1505.91        500.000        3275.15     
  1504.40        500.000        3275.19     
  1502.89        500.000        3276.40     
  1501.38        500.000        3277.14     
  1499.87        500.000        3277.87     
  1498.36        500.000        3278.60     
  1496.85        500.000        3278.63     
  1495.34        500.000        3279.77     
  1493.83        500.000        3280.06     
  1492.32        500.000        3275.81     
  1490.81        500.000        3271.19     
  1489.30        500.000        3271.40     
  1487.79        500.000        3272.21     
  1486.28        500.000        3272.82     
  1484.77        500.000        3273.87     
  1483.26        500.000        3275.96     
  1481.75        500.000        3275.35     
  1480.24        500.000        3276.54     
  1478.73        500.000        3277.58     
  1477.22        500.000        3278.82     
  1475.71        500.000        3279.60     
  1474.20        500.000        3280.33     
  1472.68        500.000        3281.68     
  1471.17        500.000        3282.30     
  1469.66        500.000        3282.98     
  1468.15        500.000        3283.79     
  1466.64        500.000        3284.83     
  1465.13        500.000        3286.13     
  1463.62        500.000        3286.49     
  1462.11        500.000        3272.70     
  1460.60        500.000        3267.92     
  1459.09        500.000        3269.01     
  1457.58        500.000        3270.31     
  1456.07        500.000        3271.57     
  1454.56        500.000        3272.80     
  1453.05        500.000        3273.95     
  1451.54        500.000        3275.70     
  1450.03        500.000        3276.79     
  1448.52        500.000        3278.01     
  1447.01        500.000        3279.35     
  1445.50        500.000        3280.61     
  1443.99        500.000        3281.68     
  1442.48        500.000        3283.41     
  1440.97        500.000        3284.73     
  1439.46        500.000        3286.12     
  1437.95        500.000        3287.22     
  1436.44        500.000        3243.58     
  1434.93        500.000        3106.27     
  1433.42        500.000        3108.21     
  1431.91        500.000        3109.87     
  1430.40        500.000        3111.73     
  1428.89        500.000        3113.58     
  1427.38        500.000        3115.41     
  1425.87        500.000        3117.24     
  1424.36        500.000        3119.15     
  1422.85        500.000        3120.91     
  1421.34        500.000        3122.84     
  1419.83        500.000        3124.75     
  1418.32        500.000        3126.38     
  1416.81        500.000        3128.16     
  1415.30        500.000        3130.17     
  1413.79        500.000        3131.91     
  1412.28        500.000        3133.65     
  1410.77        500.000        3135.51     
  1409.26        500.000        3137.42     
  1407.75        500.000        3139.10     
  1406.24        500.000        3140.96     
  1404.73        500.000        3142.86     
  1403.22        500.000        3144.76     
  1401.71        500.000        3146.50     
  1400.20        500.000        3148.27     
  1398.69        500.000        3150.11     
  1397.18        500.000        3151.89     
  1395.67        500.000        3153.95     
  1394.16        500.000        3156.15     
  1392.65        500.000        3157.52     
  1391.14        500.000        3159.50     
  1389.63        500.000        3161.33     
  1388.12        500.000        3163.22     
  1386.60        500.000        3165.04     
  1385.09        500.000        3166.89     
  1383.58        500.000        3168.61     
  1382.07        500.000        3170.59     
  1380.56        500.000        3172.11     
  1379.05        500.000        3174.49     
  1377.54        500.000        3176.15     
  1376.03        500.000        3178.01     
  1374.52        500.000        3180.02     
  1373.01        500.000        3187.53     
  1371.50        500.000        3212.06     
  1369.99        500.000        3200.87     
  1368.48        500.000        3219.98     
  1366.97        500.000        3222.51     
  1365.46        500.000        3224.41     
  1363.95        500.000        3225.66     
  1362.44        500.000        3228.17     
  1360.93        500.000        3230.38     
  1359.42        500.000        3232.20     
  1357.91        500.000        3233.94     
  1356.40        500.000        3236.58     
  1354.89        500.000        3239.56     
  1353.38        500.000        3241.00     
  1351.87        500.000        3242.51     
  1350.36        500.000        3245.20     
  1348.85        500.000        3246.13     
  1347.34        500.000        3249.00     
  1345.83        500.000        3250.65     
  1344.32        500.000        3253.41     
  1342.81        500.000        3254.84     
  1341.30        500.000        3256.85     
  1339.79        500.000        3258.89     
  1338.28        500.000        3260.86     
  1336.77        500.000        3264.01     
  1335.26        500.000        3265.19     
  1333.75        500.000        3267.38     
  1332.24        500.000        3269.40     
  1330.73        500.000        3269.86     
  1329.22        500.000        3272.67     
  1327.71        500.000        3274.97     
  1326.20        500.000        3276.69     
  1324.69        500.000        3278.63     
  1323.18        500.000        3280.09     
  1321.67        500.000        3282.34     
  1320.16        500.000        3284.23     
  1318.65        500.000        3284.46     
  1317.14        500.000        3288.31     
  1315.63        500.000        3289.51     
  1314.12        500.000        3291.33     
  1312.61        500.000        3291.79     
  1311.10        500.000        3295.50     
  1309.59        500.000        3296.59     
  1308.08        500.000        3298.07     
  1306.57        500.000        3299.59     
  1305.06        500.000        3301.07     
  1303.55        500.000        3293.16     
  1302.04        500.000        3315.42     
  1300.52        500.000        3305.67     
  1299.01        500.000        3306.99     
  1297.50        500.000        3308.56     
  1295.99        500.000        3315.20     
  1294.48        500.000        3308.57     
  1292.97        500.000        3312.64     
  1291.46        500.000        3314.03     
  1289.95        500.000        3315.56     
  1288.44        500.000        3316.45     
  1286.93        500.000        3318.09     
  1285.42        500.000        3318.65     
  1283.91        500.000        3319.34     
  1282.40        500.000        3320.64     
  1280.89        500.000        3321.91     
  1279.38        500.000        3322.72     
  1277.87        500.000        3324.13     
  1276.36        500.000        3324.24     
  1274.85        500.000        3326.02     
  1273.34        500.000        3326.37     
  1271.83        500.000        3326.51     
  1270.32        500.000        3327.58     
  1268.81        500.000        2833.38     
  1267.30        500.000        2825.30     
  1265.79        500.000        2827.08     
  1264.28        500.000        2828.13     
  1262.77        500.000        2831.61     
  1261.26        500.000        2834.02     
  1259.75        500.000        2836.52     
  1258.24        500.000        2838.78     
  1256.73        500.000        2841.29     
  1255.22        500.000        2846.77     
  1253.71        500.000        2854.29     
  1252.20        500.000        2855.23     
  1250.69        500.000        2856.35     
  1249.18        500.000        2857.15     
  1247.67        500.000        2858.14     
  1246.16        500.000        2859.46     
  1244.65        500.000        2860.02     
  1243.14        500.000        2860.53     
  1241.63        500.000        2861.60     
  1240.12        500.000        2862.11     
  1238.61        500.000        2862.77     
  1237.10        500.000        2863.54     
  1235.59        500.000        2863.78     
  1234.08        500.000        2864.54     
  1232.57        500.000        2865.54     
  1231.06        500.000        2865.38     
  1229.55        500.000        2865.31     
  1228.04        500.000        2864.00     
  1226.53        500.000        2866.88     
  1225.02        500.000        2866.66     
  1223.51        500.000        2866.63     
  1222.00        500.000        2866.72     
  1220.49        500.000        2776.74     
  1218.98        500.000        2905.75     
  1217.47        500.000        2707.76     
  1215.96        500.000        2520.16     
  1214.44        500.000        2710.46     
  1212.93        500.000        2998.96     
  1211.42        500.000        2604.18     
  1209.91        500.000        2929.99     
  1208.40        500.000        2629.68     
  1206.89        500.000        2693.84     
  1205.38        500.000        2602.55     
  1203.87        500.000        3497.42     
  1202.36        500.000        2670.41     
  1200.85        500.000        2419.78     
  1199.34        500.000        2419.88     
  1197.83        500.000        2668.32     
  1196.32        500.000        2667.83     
  1194.81        500.000        2669.34     
  1193.30        500.000        2661.73     
  1191.79        500.000        2647.39     
  1190.28        500.000        2639.75     
  1188.77        500.000        2630.73     
  1187.26        500.000        2630.80     
  1185.75        500.000        2630.85     
  1184.24        500.000        2630.92     
  1182.73        500.000        2630.99     
  1181.22        500.000        2631.05     
  1179.71        500.000        2631.12     
  1178.20        500.000        2631.19     
  1176.69        500.000        2631.26     
  1175.18        500.000        2631.32     
  1173.67        500.000        2631.38     
  1172.16        500.000        2631.46     
  1170.65        500.000        2631.51     
  1169.14        500.000        2631.60     
  1167.63        500.000        2631.64     
  1166.12        500.000        2631.71     
  1164.61        500.000        2631.79     
  1163.10        500.000        2631.84     
  1161.59        500.000        2631.89     
  1160.08        500.000        2631.95     
  1158.57        500.000        2632.03     
  1157.06        500.000        2632.11     
  1155.55        500.000        2632.17     
  1154.04        500.000        2632.22     
  1152.53        500.000        2632.29     
  1151.02        500.000        2632.36     
  1149.51        500.000        2632.43     
  1148.00        500.000        2632.50     
  1146.49        500.000        2632.55     
  1144.98        500.000        2632.63     
  1143.47        500.000        2632.70     
  1141.96        500.000        2632.76     
  1140.45        500.000        2632.86     
  1138.94        500.000        2632.92     
  1137.43        500.000        2632.98     
  1135.92        500.000        2633.05     
  1134.41        500.000        2633.08     
  1132.90        500.000        2633.15     
  1131.39        500.000        2633.23     
  1129.88        500.000        2633.28     
  1128.36        500.000        2633.38     
  1126.85        500.000        2633.39     
  1125.34        500.000        2633.47     
  1123.83        500.000        2633.56     
  1122.32        500.000        2633.59     
  1120.81        500.000        2633.66     
  1119.30        500.000        2633.70     
  1117.79        500.000        2633.70     
  1116.28        500.000        2633.84     
  1114.77        500.000        2633.90     
  1113.26        500.000        2633.99     
  1111.75        500.000        2634.05     
  1110.24        500.000        2634.13     
  1108.73        500.000        2634.17     
  1107.22        500.000        2634.25     
  1105.71        500.000        2634.32     
  1104.20        500.000        2634.39     
  1102.69        500.000        2634.45     
  1101.18        500.000        2634.53     
  1099.67        500.000        2633.34     
  1098.16        500.000        2633.09     
  1096.65        500.000        2632.97     
  1095.14        500.000        2634.76     
  1093.63        500.000        2634.83     
  1092.12        500.000        2634.89     
  1090.61        500.000        2632.74     
  1089.10        500.000        2633.11     
  1087.59        500.000        2633.00     
  1086.08        500.000        2632.98     
  1084.57        500.000        2632.73     
  1083.06        500.000        2632.89     
  1081.55        500.000        2632.88     
  1080.04        500.000        2632.87     
  1078.53        500.000        2632.88     
  1077.02        500.000        2632.88     
  1075.51        500.000        2632.78     
  1074.00        500.000        2632.84     
  1072.49        500.000        2632.51     
  1070.98        500.000        2632.94     
  1069.47        500.000        2632.97     
  1067.96        500.000        2632.94     
  1066.45        500.000        2632.97     
  1064.94        500.000        2633.00     
  1063.43        500.000        2633.03     
  1061.92        500.000        2633.06     
  1060.41        500.000        2633.10     
  1058.90        500.000        2633.13     
  1057.39        500.000        2633.17     
  1055.88        500.000        2633.20     
  1054.37        500.000        2633.24     
  1052.86        500.000        2633.27     
  1051.35        500.000        2633.31     
  1049.84        500.000        2633.25     
  1048.33        500.000        2633.39     
  1046.82        500.000        2633.45     
  1045.31        500.000        2633.47     
  1043.80        500.000        2633.46     
  1042.28        500.000        2633.52     
  1040.77        500.000        2633.58     
  1039.26        500.000        2633.63     
  1037.75        500.000        2633.67     
  1036.24        500.000        2633.72     
  1034.73        500.000        2633.76     
  1033.22        500.000        2633.81     
  1031.71        500.000        2633.85     
  1030.20        500.000        2633.89     
  1028.69        500.000        2633.94     
  1027.18        500.000        2633.68     
  1025.67        500.000        2634.03     
  1024.16        500.000        2634.09     
  1022.65        500.000        2634.13     
  1021.14        500.000        2634.18     
  1019.63        500.000        2634.23     
  1018.12        500.000        2634.27     
  1016.61        500.000        2634.33     
  1015.10        500.000        2634.37     
  1013.59        500.000        2634.42     
  1012.08        500.000        2634.47     
  1010.57        500.000        2634.52     
  1009.06        500.000        2634.57     
  1007.55        500.000        2634.63     
  1006.04        500.000        2634.67     
  1004.53        500.000        2634.72     
  1003.02        500.000        2634.77     
  1001.51        500.000        2634.82     
  1000.00        500.000        2634.87     
