|6.6.6
Archiving\03_Data\fracLP/QFM_m0.5/LAR/LAR_6.tab                           
           1
T(K)    
  0.000000000000000E+000
  0.000000000000000E+000
           0
           3
T(K)           P(bar)         rho,kg/m3     
  2000.00        500.000        3552.33     
  1997.49        500.000        3552.70     
  1994.99        500.000        3553.07     
  1992.48        500.000        3553.44     
  1989.97        500.000        3553.81     
  1987.47        500.000        3554.18     
  1984.96        500.000        3554.55     
  1982.46        500.000        3554.92     
  1979.95        500.000        3555.29     
  1977.44        500.000        3555.66     
  1974.94        500.000        3556.03     
  1972.43        500.000        3556.40     
  1969.92        500.000        3556.77     
  1967.42        500.000        3557.14     
  1964.91        500.000        3557.50     
  1962.41        500.000        3557.87     
  1959.90        500.000        3558.24     
  1957.39        500.000        3558.61     
  1954.89        500.000        3558.98     
  1952.38        500.000        3559.35     
  1949.87        500.000        3559.72     
  1947.37        500.000        3560.08     
  1944.86        500.000        3560.45     
  1942.36        500.000        3560.82     
  1939.85        500.000        3561.19     
  1937.34        500.000        3561.56     
  1934.84        500.000        3561.92     
  1932.33        500.000        3562.29     
  1929.82        500.000        3562.66     
  1927.32        500.000        3563.03     
  1924.81        500.000        3563.39     
  1922.31        500.000        3563.76     
  1919.80        500.000        3564.13     
  1917.29        500.000        3564.49     
  1914.79        500.000        3564.86     
  1912.28        500.000        3565.23     
  1909.77        500.000        3565.59     
  1907.27        500.000        3565.96     
  1904.76        500.000        3566.32     
  1902.26        500.000        3566.69     
  1899.75        500.000        3567.06     
  1897.24        500.000        3567.42     
  1894.74        500.000        3567.79     
  1892.23        500.000        3568.15     
  1889.72        500.000        3568.52     
  1887.22        500.000        3568.88     
  1884.71        500.000        3569.25     
  1882.21        500.000        3569.61     
  1879.70        500.000        3569.98     
  1877.19        500.000        3570.34     
  1874.69        500.000        3570.71     
  1872.18        500.000        3571.07     
  1869.67        500.000        3571.44     
  1867.17        500.000        3571.80     
  1864.66        500.000        3572.16     
  1862.16        500.000        3572.53     
  1859.65        500.000        3572.89     
  1857.14        500.000        3573.25     
  1854.64        500.000        3573.62     
  1852.13        500.000        3573.98     
  1849.62        500.000        3574.35     
  1847.12        500.000        3574.71     
  1844.61        500.000        3575.07     
  1842.11        500.000        3575.43     
  1839.60        500.000        3575.80     
  1837.09        500.000        3576.16     
  1834.59        500.000        3576.52     
  1832.08        500.000        3576.88     
  1829.57        500.000        3577.25     
  1827.07        500.000        3577.61     
  1824.56        500.000        3577.97     
  1822.06        500.000        3578.33     
  1819.55        500.000        3578.70     
  1817.04        500.000        3579.06     
  1814.54        500.000        3579.42     
  1812.03        500.000        3579.78     
  1809.52        500.000        3580.14     
  1807.02        500.000        3580.50     
  1804.51        500.000        3580.86     
  1802.01        500.000        3581.22     
  1799.50        500.000        3581.59     
  1796.99        500.000        3581.95     
  1794.49        500.000        3582.31     
  1791.98        500.000        3582.67     
  1789.47        500.000        3583.03     
  1786.97        500.000        3583.39     
  1784.46        500.000        3583.75     
  1781.95        500.000        3584.11     
  1779.45        500.000        3584.47     
  1776.94        500.000        3584.83     
  1774.44        500.000        3585.19     
  1771.93        500.000        3585.55     
  1769.42        500.000        3585.91     
  1766.92        500.000        3586.27     
  1764.41        500.000        3586.63     
  1761.90        500.000        3586.98     
  1759.40        500.000        3587.34     
  1756.89        500.000        3587.70     
  1754.39        500.000        3588.06     
  1751.88        500.000        3588.42     
  1749.37        500.000        3588.78     
  1746.87        500.000        3589.14     
  1744.36        500.000        3589.49     
  1741.85        500.000        3589.85     
  1739.35        500.000        3590.21     
  1736.84        500.000        3590.57     
  1734.34        500.000        3590.93     
  1731.83        500.000        3591.28     
  1729.32        500.000        3591.64     
  1726.82        500.000        3592.00     
  1724.31        500.000        3592.36     
  1721.80        500.000        3592.71     
  1719.30        500.000        3593.07     
  1716.79        500.000        3593.43     
  1714.29        500.000        3593.78     
  1711.78        500.000        3594.14     
  1709.27        500.000        3594.50     
  1706.77        500.000        3594.85     
  1704.26        500.000        3595.21     
  1701.75        500.000        3595.57     
  1699.25        500.000        3595.92     
  1696.74        500.000        3596.28     
  1694.24        500.000        3596.63     
  1691.73        500.000        3596.99     
  1689.22        500.000        3597.35     
  1686.72        500.000        3597.70     
  1684.21        500.000        3598.06     
  1681.70        500.000        3598.41     
  1679.20        500.000        3598.77     
  1676.69        500.000        3599.12     
  1674.19        500.000        3599.48     
  1671.68        500.000        3608.01     
  1669.17        500.000        3610.99     
  1666.67        500.000        3611.26     
  1664.16        500.000        3611.52     
  1661.65        500.000        3611.79     
  1659.15        500.000        3612.06     
  1656.64        500.000        3612.31     
  1654.14        500.000        3612.61     
  1651.63        500.000        3612.84     
  1649.12        500.000        3613.12     
  1646.62        500.000        3613.41     
  1644.11        500.000        3613.64     
  1641.60        500.000        3613.95     
  1639.10        500.000        3614.19     
  1636.59        500.000        3614.47     
  1634.09        500.000        3614.75     
  1631.58        500.000        3615.02     
  1629.07        500.000        3615.29     
  1626.57        500.000        3616.17     
  1624.06        500.000        3615.19     
  1621.55        500.000        3612.79     
  1619.05        500.000        3619.68     
  1616.54        500.000        3616.66     
  1614.04        500.000        3616.93     
  1611.53        500.000        3617.20     
  1609.02        500.000        3617.46     
  1606.52        500.000        3604.77     
  1604.01        500.000        3406.76     
  1601.50        500.000        3407.79     
  1599.00        500.000        3411.53     
  1596.49        500.000        3413.18     
  1593.98        500.000        3415.21     
  1591.48        500.000        3418.26     
  1588.97        500.000        3419.66     
  1586.47        500.000        3421.92     
  1583.96        500.000        3424.31     
  1581.45        500.000        3426.73     
  1578.95        500.000        3428.66     
  1576.44        500.000        3434.41     
  1573.93        500.000        3436.27     
  1571.43        500.000        3435.13     
  1568.92        500.000        3438.12     
  1566.42        500.000        3439.01     
  1563.91        500.000        3440.16     
  1561.40        500.000        3443.98     
  1558.90        500.000        3447.15     
  1556.39        500.000        3448.23     
  1553.88        500.000        3451.33     
  1551.38        500.000        3453.28     
  1548.87        500.000        3455.51     
  1546.37        500.000        3455.21     
  1543.86        500.000        3459.42     
  1541.35        500.000        3451.22     
  1538.85        500.000        4550.64     
  1536.34        500.000        3451.95     
  1533.83        500.000        3464.51     
  1531.33        500.000        3470.96     
  1528.82        500.000        3473.23     
  1526.32        500.000        3476.63     
  1523.81        500.000        3477.06     
  1521.30        500.000        3478.81     
  1518.80        500.000        3481.59     
  1516.29        500.000        3484.80     
  1513.78        500.000        3486.63     
  1511.28        500.000        3488.73     
  1508.77        500.000        3486.94     
  1506.27        500.000        3495.27     
  1503.76        500.000        3495.80     
  1501.25        500.000        3498.18     
  1498.75        500.000        3499.85     
  1496.24        500.000        3388.59     
  1493.73        500.000        3324.15     
  1491.23        500.000        3324.77     
  1488.72        500.000        3364.56     
  1486.22        500.000        3326.51     
  1483.71        500.000        3326.62     
  1481.20        500.000        3328.94     
  1478.70        500.000        3329.56     
  1476.19        500.000        3331.69     
  1473.68        500.000        3330.97     
  1471.18        500.000        3332.25     
  1468.67        500.000        3333.20     
  1466.17        500.000        3334.45     
  1463.66        500.000        3335.26     
  1461.15        500.000        3356.38     
  1458.65        500.000        3330.68     
  1456.14        500.000        3318.22     
  1453.63        500.000        3320.14     
  1451.13        500.000        3322.57     
  1448.62        500.000        3324.00     
  1446.12        500.000        3325.18     
  1443.61        500.000        3323.77     
  1441.10        500.000        3304.10     
  1438.60        500.000        3306.43     
  1436.09        500.000        3308.78     
  1433.58        500.000        3311.44     
  1431.08        500.000        3313.62     
  1428.57        500.000        3316.59     
  1426.07        500.000        3318.99     
  1423.56        500.000        3321.76     
  1421.05        500.000        3324.25     
  1418.55        500.000        3326.72     
  1416.04        500.000        3329.53     
  1413.53        500.000        3332.25     
  1411.03        500.000        3334.83     
  1408.52        500.000        3337.65     
  1406.02        500.000        3340.08     
  1403.51        500.000        3343.02     
  1401.00        500.000        3345.35     
  1398.50        500.000        3348.54     
  1395.99        500.000        3351.17     
  1393.48        500.000        3353.75     
  1390.98        500.000        3356.60     
  1388.47        500.000        3359.50     
  1385.96        500.000        3361.96     
  1383.46        500.000        3364.82     
  1380.95        500.000        3308.21     
  1378.45        500.000        3178.11     
  1375.94        500.000        3181.44     
  1373.43        500.000        3184.62     
  1370.93        500.000        3187.92     
  1368.42        500.000        3191.08     
  1365.91        500.000        3194.49     
  1363.41        500.000        3202.52     
  1360.90        500.000        3232.17     
  1358.40        500.000        3236.40     
  1355.89        500.000        3240.93     
  1353.38        500.000        3245.58     
  1350.88        500.000        3250.11     
  1348.37        500.000        3254.75     
  1345.86        500.000        3259.37     
  1343.36        500.000        3263.86     
  1340.85        500.000        3268.50     
  1338.35        500.000        3272.92     
  1335.84        500.000        3277.16     
  1333.33        500.000        3281.67     
  1330.83        500.000        3285.86     
  1328.32        500.000        3290.07     
  1325.81        500.000        3294.19     
  1323.31        500.000        3298.03     
  1320.80        500.000        3301.88     
  1318.30        500.000        3305.50     
  1315.79        500.000        3309.22     
  1313.28        500.000        3312.78     
  1310.78        500.000        3316.00     
  1308.27        500.000        3333.70     
  1305.76        500.000        3365.68     
  1303.26        500.000        3375.77     
  1300.75        500.000        3382.66     
  1298.25        500.000        3387.77     
  1295.74        500.000        3390.20     
  1293.23        500.000        3392.32     
  1290.73        500.000        3394.30     
  1288.22        500.000        3395.70     
  1285.71        500.000        3396.61     
  1283.21        500.000        3397.27     
  1280.70        500.000        3410.57     
  1278.20        500.000        3384.90     
  1275.69        500.000        3398.24     
  1273.18        500.000        3398.05     
  1270.68        500.000        3398.09     
  1268.17        500.000        3397.53     
  1265.66        500.000        3396.89     
  1263.16        500.000        3396.28     
  1260.65        500.000        2902.18     
  1258.15        500.000        2874.11     
  1255.64        500.000        2875.87     
  1253.13        500.000        2877.48     
  1250.63        500.000        2878.79     
  1248.12        500.000        2879.65     
  1245.61        500.000        2880.29     
  1243.11        500.000        2880.74     
  1240.60        500.000        2880.88     
  1238.10        500.000        2880.58     
  1235.59        500.000        2880.09     
  1233.08        500.000        2879.47     
  1230.58        500.000        2878.63     
  1228.07        500.000        2877.61     
  1225.56        500.000        2876.49     
  1223.06        500.000        2875.16     
  1220.55        500.000        2873.68     
  1218.05        500.000        2872.14     
  1215.54        500.000        2870.64     
  1213.03        500.000        2868.92     
  1210.53        500.000        2867.35     
  1208.02        500.000        2865.65     
  1205.51        500.000        2864.12     
  1203.01        500.000        2862.07     
  1200.50        500.000        2683.51     
  1197.99        500.000        2673.66     
  1195.49        500.000        2682.64     
  1192.98        500.000        2676.36     
  1190.48        500.000        2685.73     
  1187.97        500.000        2661.70     
  1185.46        500.000        2652.48     
  1182.96        500.000        2638.10     
  1180.45        500.000        2638.19     
  1177.94        500.000        2638.33     
  1175.44        500.000        2638.40     
  1172.93        500.000        2638.50     
  1170.43        500.000        2638.57     
  1167.92        500.000        2638.67     
  1165.41        500.000        2638.80     
  1162.91        500.000        2638.89     
  1160.40        500.000        2639.02     
  1157.89        500.000        2639.13     
  1155.39        500.000        2639.21     
  1152.88        500.000        2639.32     
  1150.38        500.000        2639.39     
  1147.87        500.000        2639.51     
  1145.36        500.000        2639.64     
  1142.86        500.000        2640.66     
  1140.35        500.000        2642.51     
  1137.84        500.000        2642.60     
  1135.34        500.000        2642.69     
  1132.83        500.000        2642.78     
  1130.33        500.000        2642.87     
  1127.82        500.000        2642.97     
  1125.31        500.000        2643.06     
  1122.81        500.000        2643.14     
  1120.30        500.000        2643.19     
  1117.79        500.000        2643.30     
  1115.29        500.000        2643.41     
  1112.78        500.000        2643.51     
  1110.28        500.000        2643.62     
  1107.77        500.000        2643.73     
  1105.26        500.000        2643.84     
  1102.76        500.000        2643.95     
  1100.25        500.000        2644.06     
  1097.74        500.000        2644.16     
  1095.24        500.000        2644.27     
  1092.73        500.000        2644.38     
  1090.23        500.000        2644.48     
  1087.72        500.000        2644.59     
  1085.21        500.000        2644.70     
  1082.71        500.000        2644.81     
  1080.20        500.000        2644.91     
  1077.69        500.000        2645.02     
  1075.19        500.000        2645.13     
  1072.68        500.000        2645.24     
  1070.18        500.000        2645.08     
  1067.67        500.000        2645.18     
  1065.16        500.000        2645.27     
  1062.66        500.000        2645.36     
  1060.15        500.000        2645.46     
  1057.64        500.000        2645.55     
  1055.14        500.000        2645.65     
  1052.63        500.000        2645.74     
  1050.13        500.000        2645.84     
  1047.62        500.000        2645.93     
  1045.11        500.000        2646.04     
  1042.61        500.000        2646.13     
  1040.10        500.000        2646.23     
  1037.59        500.000        2646.33     
  1035.09        500.000        2646.40     
  1032.58        500.000        2646.49     
  1030.08        500.000        2646.61     
  1027.57        500.000        2646.69     
  1025.06        500.000        2646.80     
  1022.56        500.000        2646.88     
  1020.05        500.000        2646.98     
  1017.54        500.000        2647.08     
  1015.04        500.000        2647.17     
  1012.53        500.000        2647.27     
  1010.03        500.000        2647.36     
  1007.52        500.000        2647.46     
  1005.01        500.000        2647.55     
  1002.51        500.000        2647.64     
  1000.00        500.000        2647.74     
