|6.6.6
Archiving\03_Data\fracLP/QFM_m2.25/EETA/EETA_6.tab                        
           1
T(K)    
  0.000000000000000E+000
  0.000000000000000E+000
           0
           3
T(K)           P(bar)         rho,kg/m3     
  2000.00        500.000        3616.67     
  1997.49        500.000        3617.05     
  1994.99        500.000        3617.43     
  1992.48        500.000        3617.81     
  1989.97        500.000        3618.20     
  1987.47        500.000        3618.58     
  1984.96        500.000        3618.96     
  1982.46        500.000        3619.34     
  1979.95        500.000        3619.72     
  1977.44        500.000        3620.10     
  1974.94        500.000        3620.48     
  1972.43        500.000        3620.86     
  1969.92        500.000        3621.24     
  1967.42        500.000        3621.62     
  1964.91        500.000        3622.00     
  1962.41        500.000        3622.38     
  1959.90        500.000        3622.75     
  1957.39        500.000        3623.13     
  1954.89        500.000        3623.51     
  1952.38        500.000        3623.89     
  1949.87        500.000        3624.27     
  1947.37        500.000        3624.65     
  1944.86        500.000        3625.03     
  1942.36        500.000        3625.40     
  1939.85        500.000        3625.78     
  1937.34        500.000        3626.16     
  1934.84        500.000        3626.54     
  1932.33        500.000        3626.92     
  1929.82        500.000        3627.29     
  1927.32        500.000        3627.67     
  1924.81        500.000        3628.05     
  1922.31        500.000        3628.43     
  1919.80        500.000        3628.80     
  1917.29        500.000        3629.18     
  1914.79        500.000        3629.56     
  1912.28        500.000        3629.93     
  1909.77        500.000        3630.31     
  1907.27        500.000        3630.69     
  1904.76        500.000        3631.06     
  1902.26        500.000        3631.44     
  1899.75        500.000        3631.81     
  1897.24        500.000        3632.19     
  1894.74        500.000        3632.57     
  1892.23        500.000        3632.94     
  1889.72        500.000        3633.32     
  1887.22        500.000        3633.69     
  1884.71        500.000        3634.07     
  1882.21        500.000        3634.44     
  1879.70        500.000        3634.82     
  1877.19        500.000        3635.19     
  1874.69        500.000        3635.57     
  1872.18        500.000        3635.94     
  1869.67        500.000        3636.31     
  1867.17        500.000        3636.69     
  1864.66        500.000        3637.06     
  1862.16        500.000        3637.44     
  1859.65        500.000        3637.81     
  1857.14        500.000        3638.18     
  1854.64        500.000        3638.56     
  1852.13        500.000        3638.93     
  1849.62        500.000        3639.31     
  1847.12        500.000        3639.68     
  1844.61        500.000        3640.05     
  1842.11        500.000        3640.42     
  1839.60        500.000        3640.80     
  1837.09        500.000        3641.17     
  1834.59        500.000        3641.54     
  1832.08        500.000        3641.92     
  1829.57        500.000        3642.29     
  1827.07        500.000        3642.66     
  1824.56        500.000        3643.03     
  1822.06        500.000        3643.40     
  1819.55        500.000        3643.78     
  1817.04        500.000        3644.15     
  1814.54        500.000        3644.52     
  1812.03        500.000        3644.89     
  1809.52        500.000        3645.26     
  1807.02        500.000        3645.63     
  1804.51        500.000        3646.00     
  1802.01        500.000        3646.37     
  1799.50        500.000        3646.75     
  1796.99        500.000        3647.12     
  1794.49        500.000        3647.49     
  1791.98        500.000        3647.86     
  1789.47        500.000        3648.23     
  1786.97        500.000        3648.60     
  1784.46        500.000        3648.97     
  1781.95        500.000        3649.34     
  1779.45        500.000        3649.71     
  1776.94        500.000        3650.08     
  1774.44        500.000        3650.45     
  1771.93        500.000        3650.82     
  1769.42        500.000        3651.18     
  1766.92        500.000        3651.55     
  1764.41        500.000        3651.92     
  1761.90        500.000        3652.29     
  1759.40        500.000        3652.66     
  1756.89        500.000        3653.03     
  1754.39        500.000        3653.40     
  1751.88        500.000        3653.77     
  1749.37        500.000        3654.13     
  1746.87        500.000        3654.50     
  1744.36        500.000        3654.87     
  1741.85        500.000        3655.24     
  1739.35        500.000        3655.61     
  1736.84        500.000        3655.97     
  1734.34        500.000        3656.34     
  1731.83        500.000        3656.71     
  1729.32        500.000        3657.08     
  1726.82        500.000        3657.44     
  1724.31        500.000        3657.81     
  1721.80        500.000        3658.18     
  1719.30        500.000        3658.54     
  1716.79        500.000        3658.91     
  1714.29        500.000        3659.28     
  1711.78        500.000        3659.64     
  1709.27        500.000        3660.01     
  1706.77        500.000        3660.38     
  1704.26        500.000        3660.74     
  1701.75        500.000        3661.11     
  1699.25        500.000        3661.47     
  1696.74        500.000        3661.84     
  1694.24        500.000        3662.20     
  1691.73        500.000        3662.57     
  1689.22        500.000        3662.94     
  1686.72        500.000        3663.30     
  1684.21        500.000        3663.67     
  1681.70        500.000        3664.03     
  1679.20        500.000        3664.40     
  1676.69        500.000        3664.76     
  1674.19        500.000        3665.12     
  1671.68        500.000        3665.49     
  1669.17        500.000        3665.85     
  1666.67        500.000        3666.22     
  1664.16        500.000        3666.58     
  1661.65        500.000        3666.95     
  1659.15        500.000        3667.31     
  1656.64        500.000        3667.67     
  1654.14        500.000        3668.04     
  1651.63        500.000        3668.40     
  1649.12        500.000        3668.76     
  1646.62        500.000        3669.13     
  1644.11        500.000        3670.16     
  1641.60        500.000        3678.53     
  1639.10        500.000        3678.82     
  1636.59        500.000        3679.11     
  1634.09        500.000        3679.41     
  1631.58        500.000        3679.68     
  1629.07        500.000        3670.70     
  1626.57        500.000        4510.66     
  1624.06        500.000        4510.92     
  1621.55        500.000        4504.13     
  1619.05        500.000        4505.10     
  1616.54        500.000        4510.87     
  1614.04        500.000        4512.15     
  1611.53        500.000        4511.78     
  1609.02        500.000        3447.24     
  1606.52        500.000        3383.37     
  1604.01        500.000        3406.82     
  1601.50        500.000        3393.45     
  1599.00        500.000        3406.29     
  1596.49        500.000        3406.50     
  1593.98        500.000        3411.10     
  1591.48        500.000        3427.65     
  1588.97        500.000        3400.08     
  1586.47        500.000        3411.07     
  1583.96        500.000        3418.43     
  1581.45        500.000        3419.23     
  1578.95        500.000        3420.17     
  1576.44        500.000        3424.20     
  1573.93        500.000        3424.98     
  1571.43        500.000        3427.98     
  1568.92        500.000        3428.40     
  1566.42        500.000        3419.61     
  1563.91        500.000        3432.32     
  1561.40        500.000        3434.75     
  1558.90        500.000        3436.00     
  1556.39        500.000        3444.44     
  1553.88        500.000        3439.54     
  1551.38        500.000        3442.14     
  1548.87        500.000        3442.62     
  1546.37        500.000        3446.05     
  1543.86        500.000        3451.41     
  1541.35        500.000        3449.15     
  1538.85        500.000        3451.64     
  1536.34        500.000        3334.24     
  1533.83        500.000        3290.05     
  1531.33        500.000        3291.63     
  1528.82        500.000        3293.01     
  1526.32        500.000        3295.62     
  1523.81        500.000        3294.97     
  1521.30        500.000        3295.18     
  1518.80        500.000        3304.22     
  1516.29        500.000        3298.40     
  1513.78        500.000        3299.65     
  1511.28        500.000        3300.76     
  1508.77        500.000        3300.92     
  1506.27        500.000        3309.61     
  1503.76        500.000        3303.76     
  1501.25        500.000        3304.86     
  1498.75        500.000        3306.53     
  1496.24        500.000        3307.49     
  1493.73        500.000        3302.99     
  1491.23        500.000        3293.85     
  1488.72        500.000        3297.01     
  1486.22        500.000        3298.48     
  1483.71        500.000        3299.26     
  1481.20        500.000        3300.95     
  1478.70        500.000        3302.59     
  1476.19        500.000        3304.34     
  1473.68        500.000        3305.74     
  1471.18        500.000        3307.85     
  1468.67        500.000        3308.93     
  1466.17        500.000        3298.44     
  1463.66        500.000        3289.02     
  1461.15        500.000        3291.48     
  1458.65        500.000        3293.93     
  1456.14        500.000        3296.43     
  1453.63        500.000        3299.15     
  1451.13        500.000        3301.32     
  1448.62        500.000        3304.05     
  1446.12        500.000        3306.45     
  1443.61        500.000        3314.61     
  1441.10        500.000        3311.62     
  1438.60        500.000        3314.95     
  1436.09        500.000        3316.23     
  1433.58        500.000        3319.89     
  1431.08        500.000        3322.65     
  1428.57        500.000        3325.25     
  1426.07        500.000        3327.88     
  1423.56        500.000        3330.10     
  1421.05        500.000        3332.76     
  1418.55        500.000        3335.12     
  1416.04        500.000        3337.85     
  1413.53        500.000        3340.26     
  1411.03        500.000        3342.50     
  1408.52        500.000        3345.37     
  1406.02        500.000        3203.34     
  1403.51        500.000        3156.16     
  1401.00        500.000        3159.34     
  1398.50        500.000        3162.60     
  1395.99        500.000        3165.91     
  1393.48        500.000        3169.23     
  1390.98        500.000        3172.39     
  1388.47        500.000        3175.71     
  1385.96        500.000        3179.08     
  1383.46        500.000        3182.25     
  1380.95        500.000        3185.58     
  1378.45        500.000        3189.08     
  1375.94        500.000        3192.38     
  1373.43        500.000        3195.68     
  1370.93        500.000        3199.21     
  1368.42        500.000        3202.35     
  1365.91        500.000        3205.90     
  1363.41        500.000        3209.13     
  1360.90        500.000        3212.71     
  1358.40        500.000        3216.19     
  1355.89        500.000        3219.95     
  1353.38        500.000        3223.35     
  1350.88        500.000        3235.27     
  1348.37        500.000        3260.88     
  1345.86        500.000        3272.59     
  1343.36        500.000        3276.75     
  1340.85        500.000        3279.92     
  1338.35        500.000        3283.82     
  1335.84        500.000        3286.86     
  1333.33        500.000        3288.68     
  1330.83        500.000        3293.60     
  1328.32        500.000        3297.02     
  1325.81        500.000        3299.74     
  1323.31        500.000        3302.95     
  1320.80        500.000        3305.56     
  1318.30        500.000        3308.72     
  1315.79        500.000        3311.69     
  1313.28        500.000        3314.21     
  1310.78        500.000        3341.45     
  1308.27        500.000        3359.44     
  1305.76        500.000        3361.44     
  1303.26        500.000        3363.58     
  1300.75        500.000        3365.52     
  1298.25        500.000        3367.74     
  1295.74        500.000        3369.18     
  1293.23        500.000        3371.15     
  1290.73        500.000        3372.60     
  1288.22        500.000        3373.90     
  1285.71        500.000        3375.63     
  1283.21        500.000        3376.81     
  1280.70        500.000        3378.15     
  1278.20        500.000        3379.29     
  1275.69        500.000        3380.26     
  1273.18        500.000        3381.67     
  1270.68        500.000        3382.39     
  1268.17        500.000        3383.27     
  1265.66        500.000        2906.94     
  1263.16        500.000        2864.61     
  1260.65        500.000        2867.42     
  1258.15        500.000        2869.88     
  1255.64        500.000        2871.87     
  1253.13        500.000        2873.83     
  1250.63        500.000        2875.14     
  1248.12        500.000        2876.26     
  1245.61        500.000        2877.28     
  1243.11        500.000        2877.99     
  1240.60        500.000        2878.66     
  1238.10        500.000        2878.66     
  1235.59        500.000        2879.00     
  1233.08        500.000        2878.78     
  1230.58        500.000        2878.74     
  1228.07        500.000        2878.68     
  1225.56        500.000        2878.10     
  1223.06        500.000        2877.33     
  1220.55        500.000        2878.75     
  1218.05        500.000        2877.59     
  1215.54        500.000        2877.42     
  1213.03        500.000        2728.31     
  1210.53        500.000        2690.60     
  1208.02        500.000        2690.59     
  1205.51        500.000        2689.28     
  1203.01        500.000        2680.67     
  1200.50        500.000        2690.82     
  1197.99        500.000        2676.44     
  1195.49        500.000        2670.34     
  1192.98        500.000        2669.75     
  1190.48        500.000        2661.09     
  1187.97        500.000        2633.07     
  1185.46        500.000        2633.13     
  1182.96        500.000        2633.19     
  1180.45        500.000        2636.08     
  1177.94        500.000        2636.19     
  1175.44        500.000        2633.39     
  1172.93        500.000        2636.42     
  1170.43        500.000        2633.52     
  1167.92        500.000        2633.67     
  1165.41        500.000        2633.74     
  1162.91        500.000        2633.80     
  1160.40        500.000        2637.00     
  1157.89        500.000        2634.25     
  1155.39        500.000        2637.24     
  1152.88        500.000        2637.36     
  1150.38        500.000        2637.44     
  1147.87        500.000        2637.54     
  1145.36        500.000        2637.65     
  1142.86        500.000        2637.80     
  1140.35        500.000        2637.92     
  1137.84        500.000        2638.02     
  1135.34        500.000        2638.10     
  1132.83        500.000        2638.25     
  1130.33        500.000        2638.38     
  1127.82        500.000        2636.37     
  1125.31        500.000        2636.11     
  1122.81        500.000        2636.02     
  1120.30        500.000        2635.97     
  1117.79        500.000        2635.96     
  1115.29        500.000        2635.96     
  1112.78        500.000        2635.98     
  1110.28        500.000        2635.27     
  1107.77        500.000        2635.35     
  1105.26        500.000        2635.44     
  1102.76        500.000        2635.52     
  1100.25        500.000        2635.60     
  1097.74        500.000        2635.68     
  1095.24        500.000        2635.77     
  1092.73        500.000        2635.85     
  1090.23        500.000        2635.94     
  1087.72        500.000        2636.02     
  1085.21        500.000        2636.10     
  1082.71        500.000        2636.19     
  1080.20        500.000        2636.27     
  1077.69        500.000        2636.36     
  1075.19        500.000        2636.45     
  1072.68        500.000        2636.53     
  1070.18        500.000        2636.62     
  1067.67        500.000        2636.70     
  1065.16        500.000        2636.79     
  1062.66        500.000        2636.88     
  1060.15        500.000        2636.97     
  1057.64        500.000        2637.05     
  1055.14        500.000        2637.14     
  1052.63        500.000        2637.23     
  1050.13        500.000        2637.31     
  1047.62        500.000        2637.40     
  1045.11        500.000        2637.49     
  1042.61        500.000        2637.58     
  1040.10        500.000        2637.67     
  1037.59        500.000        2637.75     
  1035.09        500.000        2637.84     
  1032.58        500.000        2637.93     
  1030.08        500.000        2638.02     
  1027.57        500.000        2638.11     
  1025.06        500.000        2638.20     
  1022.56        500.000        2638.29     
  1020.05        500.000        2638.38     
  1017.54        500.000        2638.46     
  1015.04        500.000        2638.55     
  1012.53        500.000        2638.64     
  1010.03        500.000        2638.73     
  1007.52        500.000        2638.44     
  1005.01        500.000        2638.97     
  1002.51        500.000        2638.23     
  1000.00        500.000        2639.10     
