|6.6.6
Archiving\03_Data\DeqLP/QFM_m0.75/WD94/WD94_6.tab                         
           1
T(K)    
  0.000000000000000E+000
  0.000000000000000E+000
           0
           3
T(K)           P(bar)         rho,kg/m3     
  2000.00        500.000        2934.36     
  1996.79        500.000        2935.13     
  1993.59        500.000        2935.90     
  1990.38        500.000        2936.67     
  1987.18        500.000        2937.44     
  1983.97        500.000        2938.21     
  1980.77        500.000        2938.98     
  1977.56        500.000        2939.75     
  1974.36        500.000        2940.52     
  1971.15        500.000        2941.29     
  1967.95        500.000        2942.06     
  1964.74        500.000        2942.83     
  1961.54        500.000        2943.60     
  1958.33        500.000        2944.37     
  1955.13        500.000        2945.14     
  1951.92        500.000        2945.91     
  1948.72        500.000        2946.68     
  1945.51        500.000        2947.45     
  1942.31        500.000        2948.22     
  1939.10        500.000        2948.99     
  1935.90        500.000        2949.76     
  1932.69        500.000        2950.53     
  1929.49        500.000        2951.30     
  1926.28        500.000        2952.07     
  1923.08        500.000        2952.84     
  1919.87        500.000        2953.61     
  1916.67        500.000        2954.38     
  1913.46        500.000        2955.15     
  1910.26        500.000        2955.92     
  1907.05        500.000        2956.69     
  1903.85        500.000        2957.46     
  1900.64        500.000        3158.99     
  1897.44        500.000        3161.09     
  1894.23        500.000        3164.99     
  1891.03        500.000        3167.06     
  1887.82        500.000        3168.45     
  1884.62        500.000        3169.53     
  1881.41        500.000        3171.53     
  1878.21        500.000        3176.83     
  1875.00        500.000        3181.01     
  1871.79        500.000        3184.45     
  1868.59        500.000        3188.91     
  1865.38        500.000        3192.74     
  1862.18        500.000        3196.07     
  1858.97        500.000        3199.00     
  1855.77        500.000        3201.62     
  1852.56        500.000        3203.98     
  1849.36        500.000        3206.12     
  1846.15        500.000        3208.08     
  1842.95        500.000        3211.28     
  1839.74        500.000        3214.23     
  1836.54        500.000        3216.96     
  1833.33        500.000        3219.50     
  1830.13        500.000        3221.87     
  1826.92        500.000        3224.09     
  1823.72        500.000        3226.19     
  1820.51        500.000        3228.16     
  1817.31        500.000        3231.01     
  1814.10        500.000        3233.70     
  1810.90        500.000        3236.25     
  1807.69        500.000        3238.68     
  1804.49        500.000        3240.99     
  1801.28        500.000        3243.19     
  1798.08        500.000        3245.30     
  1794.87        500.000        3247.32     
  1791.67        500.000        3249.86     
  1788.46        500.000        3252.31     
  1785.26        500.000        3254.65     
  1782.05        500.000        3256.91     
  1778.85        500.000        3259.09     
  1775.64        500.000        3261.18     
  1772.44        500.000        3263.21     
  1769.23        500.000        3265.17     
  1766.03        500.000        3267.43     
  1762.82        500.000        3269.62     
  1759.62        500.000        3271.74     
  1756.41        500.000        3273.79     
  1753.21        500.000        3275.79     
  1750.00        500.000        3277.73     
  1746.79        500.000        3279.61     
  1743.59        500.000        3281.45     
  1740.38        500.000        3283.53     
  1737.18        500.000        3285.55     
  1733.97        500.000        3287.53     
  1730.77        500.000        3289.45     
  1727.56        500.000        3291.33     
  1724.36        500.000        3293.16     
  1721.15        500.000        3294.95     
  1717.95        500.000        3296.70     
  1714.74        500.000        3298.47     
  1711.54        500.000        3300.21     
  1708.33        500.000        3301.91     
  1705.13        500.000        3303.58     
  1701.92        500.000        3305.22     
  1698.72        500.000        3306.82     
  1695.51        500.000        3308.39     
  1692.31        500.000        3309.94     
  1689.10        500.000        3311.52     
  1685.90        500.000        3313.08     
  1682.69        500.000        3314.61     
  1679.49        500.000        3316.12     
  1676.28        500.000        3317.60     
  1673.08        500.000        3319.06     
  1669.87        500.000        3320.50     
  1666.67        500.000        3321.91     
  1663.46        500.000        3323.28     
  1660.26        500.000        3324.64     
  1657.05        500.000        3325.98     
  1653.85        500.000        3327.30     
  1650.64        500.000        3328.60     
  1647.44        500.000        3329.89     
  1644.23        500.000        3331.16     
  1641.03        500.000        3332.41     
  1637.82        500.000        3333.71     
  1634.62        500.000        3334.99     
  1631.41        500.000        3336.25     
  1628.21        500.000        3337.51     
  1625.00        500.000        3338.62     
  1621.79        500.000        3339.71     
  1618.59        500.000        3340.19     
  1615.38        500.000        3340.44     
  1612.18        500.000        3339.70     
  1608.97        500.000        3339.01     
  1605.77        500.000        3338.35     
  1602.56        500.000        3337.73     
  1599.36        500.000        3337.14     
  1596.15        500.000        3336.59     
  1592.95        500.000        3336.07     
  1589.74        500.000        3335.57     
  1586.54        500.000        3335.52     
  1583.33        500.000        3335.48     
  1580.13        500.000        3335.45     
  1576.92        500.000        3335.43     
  1573.72        500.000        3335.42     
  1570.51        500.000        3335.42     
  1567.31        500.000        3335.43     
  1564.10        500.000        3335.45     
  1560.90        500.000        3335.56     
  1557.69        500.000        3335.68     
  1554.49        500.000        3335.80     
  1551.28        500.000        3335.93     
  1548.08        500.000        3336.06     
  1544.87        500.000        3336.20     
  1541.67        500.000        3336.35     
  1538.46        500.000        3336.50     
  1535.26        500.000        3336.71     
  1532.05        500.000        3336.93     
  1528.85        500.000        3337.15     
  1525.64        500.000        3337.38     
  1522.44        500.000        3337.60     
  1519.23        500.000        3337.83     
  1516.03        500.000        3338.07     
  1512.82        500.000        3338.30     
  1509.62        500.000        3338.56     
  1506.41        500.000        3338.81     
  1503.21        500.000        3339.07     
  1500.00        500.000        3339.34     
  1496.79        500.000        3339.60     
  1493.59        500.000        3339.87     
  1490.38        500.000        3340.14     
  1487.18        500.000        3340.41     
  1483.97        500.000        3340.68     
  1480.77        500.000        3340.95     
  1477.56        500.000        3341.22     
  1474.36        500.000        3341.50     
  1471.15        500.000        3341.76     
  1467.95        500.000        3342.03     
  1464.74        500.000        3342.27     
  1461.54        500.000        3342.61     
  1458.33        500.000        3343.01     
  1455.13        500.000        3343.40     
  1451.92        500.000        3343.79     
  1448.72        500.000        3344.19     
  1445.51        500.000        3344.58     
  1442.31        500.000        3344.97     
  1439.10        500.000        3345.37     
  1435.90        500.000        3345.76     
  1432.69        500.000        3346.21     
  1429.49        500.000        3346.66     
  1426.28        500.000        3347.06     
  1423.08        500.000        3346.96     
  1419.87        500.000        3346.11     
  1416.67        500.000        3345.35     
  1413.46        500.000        3345.80     
  1410.26        500.000        3344.24     
  1407.05        500.000        3344.69     
  1403.85        500.000        3345.13     
  1400.64        500.000        3345.57     
  1397.44        500.000        3346.01     
  1394.23        500.000        3346.45     
  1391.03        500.000        3346.89     
  1387.82        500.000        3347.33     
  1384.62        500.000        3342.03     
  1381.41        500.000        3342.47     
  1378.21        500.000        3342.91     
  1375.00        500.000        3343.34     
  1371.79        500.000        3343.78     
  1368.59        500.000        3344.22     
  1365.38        500.000        3344.65     
  1362.18        500.000        3345.09     
  1358.97        500.000        3341.42     
  1355.77        500.000        3341.85     
  1352.56        500.000        3342.29     
  1349.36        500.000        3342.72     
  1346.15        500.000        3343.15     
  1342.95        500.000        3343.58     
  1339.74        500.000        3344.01     
  1336.54        500.000        3344.45     
  1333.33        500.000        3341.46     
  1330.13        500.000        3341.89     
  1326.92        500.000        3342.31     
  1323.72        500.000        3342.74     
  1320.51        500.000        3343.17     
  1317.31        500.000        3343.60     
  1314.10        500.000        3344.03     
  1310.90        500.000        3344.45     
  1307.69        500.000        3341.89     
  1304.49        500.000        3342.31     
  1301.28        500.000        3342.04     
  1298.08        500.000        3342.13     
  1294.87        500.000        3338.18     
  1291.67        500.000        3338.61     
  1288.46        500.000        3339.03     
  1285.26        500.000        3339.45     
  1282.05        500.000        3339.58     
  1278.85        500.000        3340.00     
  1275.64        500.000        3340.42     
  1272.44        500.000        3340.84     
  1269.23        500.000        3341.26     
  1266.03        500.000        3341.68     
  1262.82        500.000        3342.10     
  1259.62        500.000        3342.52     
  1256.41        500.000        3342.35     
  1253.21        500.000        3342.77     
  1250.00        500.000        3343.19     
  1246.79        500.000        3343.61     
  1243.59        500.000        3344.03     
  1240.38        500.000        3344.44     
  1237.18        500.000        3344.86     
  1233.97        500.000        3345.28     
  1230.77        500.000        3345.16     
  1227.56        500.000        3345.58     
  1224.36        500.000        3345.99     
  1221.15        500.000        3346.41     
  1217.95        500.000        3346.82     
  1214.74        500.000        3347.24     
  1211.54        500.000        3347.66     
  1208.33        500.000        3348.07     
  1205.13        500.000        3347.99     
  1201.92        500.000        3348.40     
  1198.72        500.000        3348.82     
  1195.51        500.000        3349.23     
  1192.31        500.000        3349.65     
  1189.10        500.000        3350.06     
  1185.90        500.000        3350.47     
  1182.69        500.000        3350.89     
  1179.49        500.000        3350.84     
  1176.28        500.000        3351.26     
  1173.08        500.000        3351.67     
  1169.87        500.000        3352.08     
  1166.67        500.000        3352.49     
  1163.46        500.000        3352.90     
  1160.26        500.000        3353.31     
  1157.05        500.000        3353.73     
  1153.85        500.000        3353.72     
  1150.64        500.000        3354.13     
  1147.44        500.000        3354.54     
  1144.23        500.000        3354.95     
  1141.03        500.000        3355.36     
  1137.82        500.000        3355.77     
  1134.62        500.000        3356.18     
  1131.41        500.000        3356.59     
  1128.21        500.000        3356.62     
  1125.00        500.000        3357.03     
  1121.79        500.000        3357.43     
  1118.59        500.000        3357.84     
  1115.38        500.000        3358.25     
  1112.18        500.000        3358.66     
  1108.97        500.000        3359.06     
  1105.77        500.000        3359.47     
  1102.56        500.000        3359.54     
  1099.36        500.000        3359.94     
  1096.15        500.000        3360.35     
  1092.95        500.000        3360.75     
  1089.74        500.000        3361.16     
  1086.54        500.000        3361.56     
  1083.33        500.000        3361.97     
  1080.13        500.000        3362.37     
  1076.92        500.000        3362.48     
  1073.72        500.000        3362.88     
  1070.51        500.000        3363.29     
  1067.31        500.000        3363.69     
  1064.10        500.000        3363.96     
  1060.90        500.000        3364.33     
  1057.69        500.000        3364.70     
  1054.49        500.000        3365.10     
  1051.28        500.000        3365.44     
  1048.08        500.000        3365.84     
  1044.87        500.000        3366.24     
  1041.67        500.000        3366.64     
  1038.46        500.000        3367.04     
  1035.26        500.000        3367.44     
  1032.05        500.000        3367.84     
  1028.85        500.000        3368.24     
  1025.64        500.000        3368.38     
  1022.44        500.000        3368.78     
  1019.23        500.000        3369.18     
  1016.03        500.000        3369.58     
  1012.82        500.000        3369.98     
  1009.62        500.000        3370.38     
  1006.41        500.000        3370.78     
  1003.21        500.000        3371.18     
  1000.00        500.000        3371.35     
