|6.6.6
Archiving\03_Data\DeqfracLP/QFM/WD94/WD94_6.tab                           
           1
T(K)    
  0.000000000000000E+000
  0.000000000000000E+000
           0
           3
T(K)           P(bar)         rho,kg/m3     
  1589.74        500.000        3914.57     
  1588.26        500.000        3243.75     
  1586.78        500.000        3245.48     
  1585.31        500.000        3246.75     
  1583.83        500.000        3246.74     
  1582.35        500.000        3247.18     
  1580.87        500.000        3248.17     
  1579.39        500.000        3248.77     
  1577.92        500.000        3249.51     
  1576.44        500.000        3248.75     
  1574.96        500.000        3249.85     
  1573.48        500.000        3251.08     
  1572.00        500.000        3251.57     
  1570.53        500.000        3252.36     
  1569.05        500.000        3253.44     
  1567.57        500.000        3254.18     
  1566.09        500.000        3253.84     
  1564.61        500.000        3255.22     
  1563.14        500.000        3254.91     
  1561.66        500.000        3256.25     
  1560.18        500.000        3256.28     
  1558.70        500.000        3256.27     
  1557.22        500.000        3257.97     
  1555.74        500.000        3261.29     
  1554.27        500.000        3258.13     
  1552.79        500.000        3259.35     
  1551.31        500.000        3260.02     
  1549.83        500.000        3260.60     
  1548.35        500.000        3261.43     
  1546.88        500.000        3261.47     
  1545.40        500.000        3262.71     
  1543.92        500.000        3262.70     
  1542.44        500.000        3268.93     
  1540.96        500.000        3260.07     
  1539.49        500.000        3263.46     
  1538.01        500.000        3264.96     
  1536.53        500.000        3265.59     
  1535.05        500.000        3266.25     
  1533.57        500.000        3266.55     
  1532.10        500.000        3268.06     
  1530.62        500.000        3268.65     
  1529.14        500.000        3269.02     
  1527.66        500.000        3268.19     
  1526.18        500.000        3268.82     
  1524.71        500.000        3269.56     
  1523.23        500.000        3270.65     
  1521.75        500.000        3270.99     
  1520.27        500.000        3271.57     
  1518.79        500.000        3271.88     
  1517.32        500.000        3272.03     
  1515.84        500.000        3273.24     
  1514.36        500.000        3272.52     
  1512.88        500.000        3274.19     
  1511.40        500.000        3274.32     
  1509.93        500.000        3273.81     
  1508.45        500.000        3275.08     
  1506.97        500.000        2864.69     
  1505.49        500.000        3277.05     
  1504.01        500.000        3281.08     
  1502.54        500.000        3279.98     
  1501.06        500.000        3278.16     
  1499.58        500.000        3310.66     
  1498.10        500.000        3279.75     
  1496.62        500.000        3280.59     
  1495.15        500.000        3281.10     
  1493.67        500.000        3281.78     
  1492.19        500.000        3282.48     
  1490.71        500.000        3283.19     
  1489.23        500.000        3284.11     
  1487.75        500.000        3284.62     
  1486.28        500.000        3285.43     
  1484.80        500.000        3285.84     
  1483.32        500.000        3287.20     
  1481.84        500.000        3288.07     
  1480.36        500.000        3288.43     
  1478.89        500.000        3288.73     
  1477.41        500.000        3289.90     
  1475.93        500.000        3290.54     
  1474.45        500.000        3292.00     
  1472.97        500.000        3291.45     
  1471.50        500.000        3293.03     
  1470.02        500.000        3293.44     
  1468.54        500.000        3293.48     
  1467.06        500.000        3294.72     
  1465.58        500.000        3295.69     
  1464.11        500.000        3296.36     
  1462.63        500.000        3296.51     
  1461.15        500.000        3297.85     
  1459.67        500.000        3298.25     
  1458.19        500.000        3295.65     
  1456.72        500.000        3269.72     
  1455.24        500.000        3271.26     
  1453.76        500.000        3272.50     
  1452.28        500.000        3274.95     
  1450.80        500.000        3274.88     
  1449.33        500.000        3276.33     
  1447.85        500.000        3277.87     
  1446.37        500.000        3279.20     
  1444.89        500.000        3280.79     
  1443.41        500.000        3281.84     
  1441.94        500.000        3283.16     
  1440.46        500.000        3284.81     
  1438.98        500.000        3285.84     
  1437.50        500.000        3287.38     
  1436.02        500.000        3288.87     
  1434.55        500.000        3290.23     
  1433.07        500.000        3291.74     
  1431.59        500.000        3293.10     
  1430.11        500.000        3294.63     
  1428.63        500.000        3296.16     
  1427.16        500.000        3297.57     
  1425.68        500.000        3298.87     
  1424.20        500.000        3300.50     
  1422.72        500.000        3302.08     
  1421.24        500.000        3303.57     
  1419.76        500.000        3304.86     
  1418.29        500.000        3304.59     
  1416.81        500.000        3131.99     
  1415.33        500.000        3130.01     
  1413.85        500.000        3132.16     
  1412.37        500.000        3134.22     
  1410.90        500.000        3136.18     
  1409.42        500.000        3138.01     
  1407.94        500.000        3140.02     
  1406.46        500.000        3147.99     
  1404.98        500.000        3152.96     
  1403.51        500.000        3155.83     
  1402.03        500.000        3157.85     
  1400.55        500.000        3160.47     
  1399.07        500.000        3162.97     
  1397.59        500.000        3165.43     
  1396.12        500.000        3168.07     
  1394.64        500.000        3170.61     
  1393.16        500.000        3172.82     
  1391.68        500.000        3175.98     
  1390.20        500.000        3178.34     
  1388.73        500.000        3181.12     
  1387.25        500.000        3183.80     
  1385.77        500.000        3186.54     
  1384.29        500.000        3189.26     
  1382.81        500.000        3191.96     
  1381.34        500.000        3194.73     
  1379.86        500.000        3197.54     
  1378.38        500.000        3200.50     
  1376.90        500.000        3203.06     
  1375.42        500.000        3206.01     
  1373.95        500.000        3208.92     
  1372.47        500.000        3211.74     
  1370.99        500.000        3214.50     
  1369.51        500.000        3217.70     
  1368.03        500.000        3220.41     
  1366.56        500.000        3223.51     
  1365.08        500.000        3226.13     
  1363.60        500.000        3229.76     
  1362.12        500.000        3232.68     
  1360.64        500.000        3235.37     
  1359.16        500.000        3238.41     
  1357.69        500.000        3241.46     
  1356.21        500.000        3244.65     
  1354.73        500.000        3247.80     
  1353.25        500.000        3250.94     
  1351.77        500.000        3253.81     
  1350.30        500.000        3257.00     
  1348.82        500.000        3259.62     
  1347.34        500.000        3263.24     
  1345.86        500.000        3266.20     
  1344.38        500.000        3269.22     
  1342.91        500.000        3272.35     
  1341.43        500.000        3275.27     
  1339.95        500.000        3278.25     
  1338.47        500.000        3281.36     
  1336.99        500.000        3284.44     
  1335.52        500.000        3287.53     
  1334.04        500.000        3290.47     
  1332.56        500.000        3386.83     
  1331.08        500.000        3405.72     
  1329.60        500.000        3406.50     
  1328.13        500.000        3407.33     
  1326.65        500.000        3408.49     
  1325.17        500.000        3409.09     
  1323.69        500.000        3409.71     
  1322.21        500.000        3410.43     
  1320.74        500.000        3411.05     
  1319.26        500.000        3411.78     
  1317.78        500.000        3412.34     
  1316.30        500.000        3412.95     
  1314.82        500.000        3413.42     
  1313.35        500.000        3414.36     
  1311.87        500.000        3414.68     
  1310.39        500.000        3415.02     
  1308.91        500.000        3415.36     
  1307.43        500.000        3416.21     
  1305.96        500.000        3416.53     
  1304.48        500.000        3416.72     
  1303.00        500.000        3417.10     
  1301.52        500.000        3417.54     
  1300.04        500.000        3418.01     
  1298.57        500.000        3418.17     
  1297.09        500.000        3418.36     
  1295.61        500.000        3418.59     
  1294.13        500.000        3418.79     
  1292.65        500.000        3419.10     
  1291.17        500.000        3419.03     
  1289.70        500.000        3419.29     
  1288.22        500.000        3419.43     
  1286.74        500.000        3419.39     
  1285.26        500.000        3419.55     
  1283.78        500.000        3419.52     
  1282.31        500.000        3419.48     
  1280.83        500.000        3419.61     
  1279.35        500.000        3419.50     
  1277.87        500.000        3419.52     
  1276.39        500.000        3419.43     
  1274.92        500.000        3419.14     
  1273.44        500.000        3419.15     
  1271.96        500.000        3418.83     
  1270.48        500.000        3418.73     
  1269.00        500.000        3418.51     
  1267.53        500.000        3418.11     
  1266.05        500.000        3417.94     
  1264.57        500.000        3417.69     
  1263.09        500.000        3417.29     
  1261.61        500.000        3416.83     
  1260.14        500.000        3004.81     
  1258.66        500.000        2865.66     
  1257.18        500.000        2866.72     
  1255.70        500.000        2867.64     
  1254.22        500.000        2868.44     
  1252.75        500.000        2869.25     
  1251.27        500.000        2869.87     
  1249.79        500.000        2870.43     
  1248.31        500.000        2870.77     
  1246.83        500.000        2870.94     
  1245.36        500.000        2870.39     
  1243.88        500.000        2871.95     
  1242.40        500.000        2861.82     
  1240.92        500.000        2845.90     
  1239.44        500.000        3581.84     
  1237.97        500.000        2869.60     
  1236.49        500.000        2872.46     
  1235.01        500.000        2869.42     
  1233.53        500.000        2846.20     
  1232.05        500.000        2879.11     
  1230.58        500.000        2916.44     
  1229.10        500.000        2863.43     
  1227.62        500.000        2868.61     
  1226.14        500.000        2921.91     
  1224.66        500.000        2801.08     
  1223.18        500.000        2857.16     
  1221.71        500.000        3441.32     
  1220.23        500.000        2855.81     
  1218.75        500.000        2855.92     
  1217.27        500.000        2855.79     
  1215.79        500.000        2853.50     
  1214.32        500.000        2852.55     
  1212.84        500.000        2742.15     
  1211.36        500.000        2880.80     
  1209.88        500.000        2645.59     
  1208.40        500.000        2710.66     
  1206.93        500.000        2672.74     
  1205.45        500.000        2671.68     
  1203.97        500.000        2665.50     
  1202.49        500.000        2671.87     
  1201.01        500.000        2664.44     
  1199.54        500.000        2664.64     
  1198.06        500.000        2661.72     
  1196.58        500.000        2655.52     
  1195.10        500.000        2707.18     
  1193.62        500.000        2656.01     
  1192.15        500.000        2932.32     
  1190.67        500.000        2652.54     
  1189.19        500.000        2643.91     
  1187.71        500.000        2634.00     
  1186.23        500.000        2623.98     
  1184.76        500.000        2620.72     
  1183.28        500.000        2620.81     
  1181.80        500.000        2620.87     
  1180.32        500.000        2620.95     
  1178.84        500.000        2621.02     
  1177.37        500.000        2620.73     
  1175.89        500.000        2621.17     
  1174.41        500.000        2620.87     
  1172.93        500.000        2621.30     
  1171.45        500.000        2621.37     
  1169.98        500.000        2621.09     
  1168.50        500.000        2621.50     
  1167.02        500.000        2621.57     
  1165.54        500.000        2621.64     
  1164.06        500.000        2621.70     
  1162.58        500.000        2621.77     
  1161.11        500.000        2621.84     
  1159.63        500.000        2621.59     
  1158.15        500.000        2621.97     
  1156.67        500.000        2621.74     
  1155.19        500.000        2622.10     
  1153.72        500.000        2621.88     
  1152.24        500.000        2622.24     
  1150.76        500.000        2622.30     
  1149.28        500.000        2622.37     
  1147.80        500.000        2622.44     
  1146.33        500.000        2622.51     
  1144.85        500.000        2622.57     
  1143.37        500.000        2622.64     
  1141.89        500.000        2622.71     
  1140.41        500.000        2622.77     
  1138.94        500.000        2622.84     
  1137.46        500.000        2622.91     
  1135.98        500.000        2622.97     
  1134.50        500.000        2623.04     
  1133.02        500.000        2623.11     
  1131.55        500.000        2622.91     
  1130.07        500.000        2623.24     
  1128.59        500.000        2623.31     
  1127.11        500.000        2623.37     
  1125.63        500.000        2623.44     
  1124.16        500.000        2623.51     
  1122.68        500.000        2623.58     
  1121.20        500.000        2623.64     
  1119.72        500.000        2623.71     
  1118.24        500.000        2623.81     
  1116.77        500.000        2623.92     
  1115.29        500.000        2623.98     
  1113.81        500.000        2623.98     
  1112.33        500.000        2624.05     
  1110.85        500.000        2624.11     
  1109.38        500.000        2624.18     
  1107.90        500.000        2624.25     
  1106.42        500.000        2624.31     
  1104.94        500.000        2624.38     
  1103.46        500.000        2624.45     
  1101.99        500.000        2624.51     
  1100.51        500.000        2624.58     
  1099.03        500.000        2624.64     
  1097.55        500.000        2624.71     
  1096.07        500.000        2624.77     
  1094.59        500.000        2624.84     
  1093.12        500.000        2624.90     
  1091.64        500.000        2624.97     
  1090.16        500.000        2625.03     
  1088.68        500.000        2625.10     
  1087.20        500.000        2625.16     
  1085.73        500.000        2625.23     
  1084.25        500.000        2625.29     
  1082.77        500.000        2625.36     
  1081.29        500.000        2625.42     
  1079.81        500.000        2625.48     
  1078.34        500.000        2625.55     
  1076.86        500.000        2625.61     
  1075.38        500.000        2625.67     
  1073.90        500.000        2625.74     
  1072.42        500.000        2625.80     
  1070.95        500.000        2625.86     
  1069.47        500.000        2625.93     
  1067.99        500.000        2625.99     
  1066.51        500.000        2626.05     
  1065.03        500.000        2626.11     
  1063.56        500.000        2626.18     
  1062.08        500.000        2626.24     
  1060.60        500.000        2626.30     
  1059.12        500.000        2626.36     
  1057.64        500.000        2626.43     
  1056.17        500.000        2626.49     
  1054.69        500.000        2626.55     
  1053.21        500.000        2626.61     
  1051.73        500.000        2626.67     
  1050.25        500.000        2626.73     
  1048.78        500.000        2626.79     
  1047.30        500.000        2626.85     
  1045.82        500.000        2626.91     
  1044.34        500.000        2626.97     
  1042.86        500.000        2627.03     
  1041.39        500.000        2627.09     
  1039.91        500.000        2627.15     
  1038.43        500.000        2627.21     
  1036.95        500.000        2627.27     
  1035.47        500.000        2627.33     
  1034.00        500.000        2627.39     
  1032.52        500.000        2627.45     
  1031.04        500.000        2627.51     
  1029.56        500.000        2627.56     
  1028.08        500.000        2627.62     
  1026.60        500.000        2627.68     
  1025.13        500.000        2627.74     
  1023.65        500.000        2627.80     
  1022.17        500.000        2627.86     
  1020.69        500.000        2627.91     
  1019.21        500.000        2627.97     
  1017.74        500.000        2628.03     
  1016.26        500.000        2628.09     
  1014.78        500.000        2628.14     
  1013.30        500.000        2628.20     
  1011.82        500.000        2628.26     
  1010.35        500.000        2628.31     
  1008.87        500.000        2628.37     
  1007.39        500.000        2628.43     
  1005.91        500.000        2628.48     
  1004.43        500.000        2628.54     
  1002.96        500.000        2628.60     
  1001.48        500.000        2628.65     
  1000.00        500.000        2628.71     
