|6.6.6
Archiving\03_Data\eq/QFM_m2/GRV/GRV_3.tab                                 
           1
T(K)    
  0.000000000000000E+000
  0.000000000000000E+000
           0
           9
T(K)           P(bar)         melt(TH)       pxmn           Sp(TH)         O(HP)          Opx(TH)        Cpx(TH)        Cpx(TH)       
  2000.00        2500.00        99.3202       0.679790                 NaN            NaN            NaN            NaN            NaN
  1996.79        2500.00        99.3201       0.679863                 NaN            NaN            NaN            NaN            NaN
  1993.59        2500.00        99.3201       0.679936                 NaN            NaN            NaN            NaN            NaN
  1990.38        2500.00        99.3200       0.680009                 NaN            NaN            NaN            NaN            NaN
  1987.18        2500.00        99.3199       0.680082                 NaN            NaN            NaN            NaN            NaN
  1983.97        2500.00        99.3198       0.680155                 NaN            NaN            NaN            NaN            NaN
  1980.77        2500.00        99.3198       0.680229                 NaN            NaN            NaN            NaN            NaN
  1977.56        2500.00        99.3197       0.680302                 NaN            NaN            NaN            NaN            NaN
  1974.36        2500.00        99.3196       0.680375                 NaN            NaN            NaN            NaN            NaN
  1971.15        2500.00        99.3196       0.680449                 NaN            NaN            NaN            NaN            NaN
  1967.95        2500.00        99.3195       0.680522                 NaN            NaN            NaN            NaN            NaN
  1964.74        2500.00        99.3194       0.680595                 NaN            NaN            NaN            NaN            NaN
  1961.54        2500.00        99.3193       0.680669                 NaN            NaN            NaN            NaN            NaN
  1958.33        2500.00        99.3193       0.680743                 NaN            NaN            NaN            NaN            NaN
  1955.13        2500.00        99.3192       0.680816                 NaN            NaN            NaN            NaN            NaN
  1951.92        2500.00        99.3191       0.680890                 NaN            NaN            NaN            NaN            NaN
  1948.72        2500.00        99.3190       0.680964                 NaN            NaN            NaN            NaN            NaN
  1945.51        2500.00        99.3190       0.681037                 NaN            NaN            NaN            NaN            NaN
  1942.31        2500.00        99.3189       0.681111                 NaN            NaN            NaN            NaN            NaN
  1939.10        2500.00        99.3188       0.681185                 NaN            NaN            NaN            NaN            NaN
  1935.90        2500.00        99.3187       0.681259                 NaN            NaN            NaN            NaN            NaN
  1932.69        2500.00        99.3187       0.681333                 NaN            NaN            NaN            NaN            NaN
  1929.49        2500.00        99.3186       0.681407                 NaN            NaN            NaN            NaN            NaN
  1926.28        2500.00        99.3185       0.681481                 NaN            NaN            NaN            NaN            NaN
  1923.08        2500.00        99.3184       0.681555                 NaN            NaN            NaN            NaN            NaN
  1919.87        2500.00        99.3184       0.681629                 NaN            NaN            NaN            NaN            NaN
  1916.67        2500.00        99.3183       0.681703                 NaN            NaN            NaN            NaN            NaN
  1913.46        2500.00        99.3182       0.681777                 NaN            NaN            NaN            NaN            NaN
  1910.26        2500.00        99.3181       0.681852                 NaN            NaN            NaN            NaN            NaN
  1907.05        2500.00        99.3181       0.681926                 NaN            NaN            NaN            NaN            NaN
  1903.85        2500.00        99.3180       0.682000                 NaN            NaN            NaN            NaN            NaN
  1900.64        2500.00        99.3179       0.682075                 NaN            NaN            NaN            NaN            NaN
  1897.44        2500.00        99.3179       0.682149                 NaN            NaN            NaN            NaN            NaN
  1894.23        2500.00        99.3178       0.682224                 NaN            NaN            NaN            NaN            NaN
  1891.03        2500.00        99.3177       0.682298                 NaN            NaN            NaN            NaN            NaN
  1887.82        2500.00        99.3176       0.682373                 NaN            NaN            NaN            NaN            NaN
  1884.62        2500.00        99.3176       0.682447                 NaN            NaN            NaN            NaN            NaN
  1881.41        2500.00        99.3175       0.682522                 NaN            NaN            NaN            NaN            NaN
  1878.21        2500.00        99.3174       0.682597                 NaN            NaN            NaN            NaN            NaN
  1875.00        2500.00        99.3173       0.682671                 NaN            NaN            NaN            NaN            NaN
  1871.79        2500.00        99.3173       0.682746                 NaN            NaN            NaN            NaN            NaN
  1868.59        2500.00        99.3172       0.682821                 NaN            NaN            NaN            NaN            NaN
  1865.38        2500.00        99.3171       0.682896                 NaN            NaN            NaN            NaN            NaN
  1862.18        2500.00        99.3170       0.682971                 NaN            NaN            NaN            NaN            NaN
  1858.97        2500.00        99.3170       0.683045                 NaN            NaN            NaN            NaN            NaN
  1855.77        2500.00        99.3169       0.683120                 NaN            NaN            NaN            NaN            NaN
  1852.56        2500.00        99.3168       0.683195                 NaN            NaN            NaN            NaN            NaN
  1849.36        2500.00        99.3167       0.683271                 NaN            NaN            NaN            NaN            NaN
  1846.15        2500.00        99.3167       0.683346                 NaN            NaN            NaN            NaN            NaN
  1842.95        2500.00        99.3166       0.683421                 NaN            NaN            NaN            NaN            NaN
  1839.74        2500.00        99.3165       0.683496                 NaN            NaN            NaN            NaN            NaN
  1836.54        2500.00        99.3164       0.683571                 NaN            NaN            NaN            NaN            NaN
  1833.33        2500.00        99.3164       0.683646                 NaN            NaN            NaN            NaN            NaN
  1830.13        2500.00        99.3163       0.683722                 NaN            NaN            NaN            NaN            NaN
  1826.92        2500.00        99.3108       0.683807       0.539502E-002            NaN            NaN            NaN            NaN
  1823.72        2500.00        99.3053       0.683888       0.108214E-001            NaN            NaN            NaN            NaN
  1820.51        2500.00        99.2998       0.683970       0.162491E-001            NaN            NaN            NaN            NaN
  1817.31        2500.00        99.2864       0.684063       0.295672E-001            NaN            NaN            NaN            NaN
  1814.10        2500.00        99.2730       0.684157       0.428889E-001            NaN            NaN            NaN            NaN
  1810.90        2500.00        99.2595       0.684250       0.562144E-001            NaN            NaN            NaN            NaN
  1807.69        2500.00        99.2461       0.684343       0.695437E-001            NaN            NaN            NaN            NaN
  1804.49        2500.00        99.2327       0.684437       0.828767E-001            NaN            NaN            NaN            NaN
  1801.28        2500.00        99.2193       0.684530       0.962135E-001            NaN            NaN            NaN            NaN
  1798.08        2500.00        99.2058       0.684624       0.109554                 NaN            NaN            NaN            NaN
  1794.87        2500.00        99.1924       0.684717       0.122898                 NaN            NaN            NaN            NaN
  1791.67        2500.00        99.1799       0.684810       0.135319                 NaN            NaN            NaN            NaN
  1788.46        2500.00        99.1674       0.684902       0.147743                 NaN            NaN            NaN            NaN
  1785.26        2500.00        99.1548       0.684994       0.160171                 NaN            NaN            NaN            NaN
  1782.05        2500.00        99.1423       0.685086       0.172602                 NaN            NaN            NaN            NaN
  1778.85        2500.00        99.1298       0.685178       0.185037                 NaN            NaN            NaN            NaN
  1775.64        2500.00        99.1173       0.685270       0.197475                 NaN            NaN            NaN            NaN
  1772.44        2500.00        99.1047       0.685362       0.209917                 NaN            NaN            NaN            NaN
  1769.23        2500.00        99.0922       0.685455       0.222362                 NaN            NaN            NaN            NaN
  1766.03        2500.00        98.4968       0.685755       0.234172       0.583316                 NaN            NaN            NaN
  1762.82        2500.00        97.7358       0.686113       0.245966        1.33211                 NaN            NaN            NaN
  1759.62        2500.00        96.9704       0.686471       0.257617        2.08556                 NaN            NaN            NaN
  1756.41        2500.00        96.2041       0.686827       0.269280        2.83975                 NaN            NaN            NaN
  1753.21        2500.00        95.4358       0.687181       0.280531        3.59652                 NaN            NaN            NaN
  1750.00        2500.00        94.6667       0.687534       0.291792        4.35402                 NaN            NaN            NaN
  1746.79        2500.00        93.8968       0.687884       0.303064        5.11226                 NaN            NaN            NaN
  1743.59        2500.00        93.1262       0.688232       0.314347        5.87123                 NaN            NaN            NaN
  1740.38        2500.00        92.3524       0.688580       0.324976        6.63409                 NaN            NaN            NaN
  1737.18        2500.00        91.5778       0.688926       0.335614        7.39767                 NaN            NaN            NaN
  1733.97        2500.00        90.8025       0.689270       0.346262        8.16196                 NaN            NaN            NaN
  1730.77        2500.00        90.0265       0.689611       0.356919        8.92696                 NaN            NaN            NaN
  1727.56        2500.00        89.2498       0.689951       0.367586        9.69266                 NaN            NaN            NaN
  1724.36        2500.00        88.4724       0.690288       0.378262        10.4591                 NaN            NaN            NaN
  1721.15        2500.00        87.6943       0.690623       0.388947        11.2261                 NaN            NaN            NaN
  1717.95        2500.00        86.9155       0.690955       0.399641        11.9939                 NaN            NaN            NaN
  1714.74        2500.00        86.1507       0.691281       0.409465        12.7486                 NaN            NaN            NaN
  1711.54        2500.00        85.3852       0.691603       0.419297        13.5039                 NaN            NaN            NaN
  1708.33        2500.00        84.6190       0.691924       0.429137        14.2599                 NaN            NaN            NaN
  1705.13        2500.00        83.8523       0.692242       0.438984        15.0165                 NaN            NaN            NaN
  1701.92        2500.00        83.0849       0.692558       0.448839        15.7737                 NaN            NaN            NaN
  1698.72        2500.00        82.3169       0.692871       0.458701        16.5315                 NaN            NaN            NaN
  1695.51        2500.00        81.5483       0.693182       0.468570        17.2899                 NaN            NaN            NaN
  1692.31        2500.00        80.7791       0.693490       0.478447        18.0489                 NaN            NaN            NaN
  1689.10        2500.00        80.0350       0.693787       0.487659        18.7836                 NaN            NaN            NaN
  1685.90        2500.00        79.2903       0.694082       0.496877        19.5188                 NaN            NaN            NaN
  1682.69        2500.00        78.5450       0.694374       0.506101        20.2545                 NaN            NaN            NaN
  1679.49        2500.00        77.7993       0.694664       0.515331        20.9907                 NaN            NaN            NaN
  1676.28        2500.00        77.0723       0.694943       0.524279        21.7085                 NaN            NaN            NaN
  1673.08        2500.00        76.3448       0.695221       0.533233        22.4267                 NaN            NaN            NaN
  1669.87        2500.00        75.3945       0.695712       0.541923        23.0705       0.297311                 NaN            NaN
  1666.67        2500.00        73.2174       0.697379       0.549246        23.3544        2.18161                 NaN            NaN
  1663.46        2500.00        71.4247       0.698776       0.553875        23.5742        3.74846                 NaN            NaN
  1660.26        2500.00        69.6249       0.700177       0.558521        23.7949        5.32153                 NaN            NaN
  1657.05        2500.00        67.8181       0.701581       0.563184        24.0163        6.90084                 NaN            NaN
  1653.85        2500.00        66.0041       0.702988       0.567864        24.2386        8.48643                 NaN            NaN
  1650.64        2500.00        64.1830       0.704400       0.572561        24.4617        10.0783                 NaN            NaN
  1647.44        2500.00        62.3548       0.705814       0.577275        24.6856        11.6765                 NaN            NaN
  1644.23        2500.00        60.5194       0.707233       0.582007        24.9103        13.2810                 NaN            NaN
  1641.03        2500.00        58.6768       0.708654       0.586756        25.1359        14.8920                 NaN            NaN
  1637.82        2500.00        57.3101       0.709746       0.587339        25.2803        16.1125                 NaN            NaN
  1634.62        2500.00        55.9393       0.710841       0.587923        25.4252        17.3368                 NaN            NaN
  1631.41        2500.00        54.5644       0.711937       0.588508        25.5704        18.5648                 NaN            NaN
  1628.21        2500.00        53.1854       0.713035       0.589093        25.7160        19.7964                 NaN            NaN
  1625.00        2500.00        51.8023       0.714134       0.589678        25.8620        21.0318                 NaN            NaN
  1621.79        2500.00        50.4151       0.715236       0.590264        26.0084        22.2710                 NaN            NaN
  1618.59        2500.00        49.0238       0.716339       0.590851        26.1552        23.5138                 NaN            NaN
  1615.38        2500.00        47.6283       0.717445       0.591439        26.3024        24.7604                 NaN            NaN
  1612.18        2500.00        46.4967       0.718371       0.588047        26.4054        25.7915                 NaN            NaN
  1608.97        2500.00        45.3623       0.719299       0.584645        26.5086        26.8251                 NaN            NaN
  1605.77        2500.00        44.2251       0.720228       0.581234        26.6121        27.8614                 NaN            NaN
  1602.56        2500.00        43.0851       0.721159       0.577813        26.7157        28.9002                 NaN            NaN
  1599.36        2500.00        41.9423       0.722091       0.574382        26.8196        29.9416                 NaN            NaN
  1596.15        2500.00        40.7967       0.723023       0.570941        26.9237        30.9856                 NaN            NaN
  1592.95        2500.00        39.6483       0.723958       0.567491        27.0281        32.0322                 NaN            NaN
  1589.74        2500.00        38.4970       0.724893       0.564031        27.1327        33.0814                 NaN            NaN
  1586.54        2500.00        37.4486       0.725763       0.556922        27.2227        34.0460                 NaN            NaN
  1583.33        2500.00        36.3978       0.726634       0.549796        27.3129        35.0128                 NaN            NaN
  1580.13        2500.00        35.3447       0.727507       0.542652        27.4033        35.9818                 NaN            NaN
  1576.92        2500.00        34.2892       0.728380       0.535490        27.4939        36.9531                 NaN            NaN
  1573.72        2500.00        33.2563       0.729242       0.525948        27.5835        37.9051                 NaN            NaN
  1570.51        2500.00        32.2210       0.730104       0.516382        27.6733        38.8592                 NaN            NaN
  1567.31        2500.00        31.1784       0.730974       0.505504        27.7659        39.8192                 NaN            NaN
  1564.10        2500.00        29.9950       0.731961       0.501053        27.8596        39.9179       0.994427                 NaN
  1560.90        2500.00        28.6461       0.733108       0.502132        27.9663        39.3290        2.82339                 NaN
  1557.69        2500.00        27.2931       0.734257       0.503215        28.0732        38.7382        4.65804                 NaN
  1554.49        2500.00        25.9361       0.735408       0.504302        28.1804        38.1454        6.49839                 NaN
  1551.28        2500.00        24.5751       0.736561       0.505392        28.2879        37.5506        8.34445                 NaN
  1548.08        2500.00        23.1301       0.737819       0.502813        28.4123        37.1935        10.0234                 NaN
  1544.87        2500.00        21.8071       0.738984       0.488718        28.5567        37.6365       0.676800        10.0952     
  1541.67        2500.00        21.8059       0.739006       0.488736        28.5571        37.6371       0.676809        10.0954     
  1538.46        2500.00        19.0518       0.741464       0.445129        28.8760        39.3711        7.99883        3.51576     
