|6.6.6
Archiving\03_Data\DeqLP/QFM_m2.5/K22/K22_6.tab                        
           1
T(K)    
  0.000000000000000E+000
  0.000000000000000E+000
           0
           3
T(K)           P(bar)         rho,kg/m3     
  2000.00        500.000        8099.88     
  1996.79        500.000        8101.72     
  1993.59        500.000        8103.55     
  1990.38        500.000        8105.38     
  1987.18        500.000        8107.21     
  1983.97        500.000        8109.03     
  1980.77        500.000        8110.86     
  1977.56        500.000        8112.68     
  1974.36        500.000        8114.50     
  1971.15        500.000        8116.32     
  1967.95        500.000        8118.14     
  1964.74        500.000        8119.96     
  1961.54        500.000        8121.78     
  1958.33        500.000        8123.59     
  1955.13        500.000        8125.41     
  1951.92        500.000        4367.78     
  1948.72        500.000        3193.24     
  1945.51        500.000        3159.20     
  1942.31        500.000        3147.42     
  1939.10        500.000        3142.94     
  1935.90        500.000        3141.84     
  1932.69        500.000        3141.51     
  1929.49        500.000        3141.36     
  1926.28        500.000        3141.34     
  1923.08        500.000        3141.41     
  1919.87        500.000        3142.69     
  1916.67        500.000        3143.83     
  1913.46        500.000        3144.86     
  1910.26        500.000        3145.81     
  1907.05        500.000        3146.91     
  1903.85        500.000        3147.93     
  1900.64        500.000        3149.48     
  1897.44        500.000        3150.90     
  1894.23        500.000        3154.04     
  1891.03        500.000        3156.92     
  1887.82        500.000        3159.57     
  1884.62        500.000        3162.03     
  1881.41        500.000        3164.31     
  1878.21        500.000        3166.45     
  1875.00        500.000        3168.46     
  1871.79        500.000        3170.35     
  1868.59        500.000        3172.81     
  1865.38        500.000        3175.14     
  1862.18        500.000        3177.35     
  1858.97        500.000        3179.45     
  1855.77        500.000        3181.46     
  1852.56        500.000        3183.38     
  1849.36        500.000        3185.21     
  1846.15        500.000        3186.98     
  1842.95        500.000        3189.15     
  1839.74        500.000        3191.24     
  1836.54        500.000        3193.26     
  1833.33        500.000        3195.20     
  1830.13        500.000        3197.08     
  1826.92        500.000        3198.89     
  1823.72        500.000        3200.65     
  1820.51        500.000        3202.35     
  1817.31        500.000        3204.33     
  1814.10        500.000        3206.26     
  1810.90        500.000        3208.13     
  1807.69        500.000        3209.95     
  1804.49        500.000        3211.72     
  1801.28        500.000        3213.44     
  1798.08        500.000        3215.12     
  1794.87        500.000        3216.76     
  1791.67        500.000        3218.57     
  1788.46        500.000        3220.35     
  1785.26        500.000        3222.08     
  1782.05        500.000        3223.77     
  1778.85        500.000        3225.43     
  1775.64        500.000        3227.05     
  1772.44        500.000        3228.63     
  1769.23        500.000        3230.19     
  1766.03        500.000        3231.82     
  1762.82        500.000        3233.43     
  1759.62        500.000        3235.00     
  1756.41        500.000        3236.55     
  1753.21        500.000        3238.07     
  1750.00        500.000        3239.56     
  1746.79        500.000        3241.02     
  1743.59        500.000        3242.46     
  1740.38        500.000        3243.93     
  1737.18        500.000        3245.38     
  1733.97        500.000        3246.81     
  1730.77        500.000        3248.21     
  1727.56        500.000        3249.60     
  1724.36        500.000        3250.96     
  1721.15        500.000        3252.30     
  1717.95        500.000        3253.62     
  1714.74        500.000        3254.92     
  1711.54        500.000        3256.20     
  1708.33        500.000        3257.46     
  1705.13        500.000        3258.71     
  1701.92        500.000        3259.94     
  1698.72        500.000        3261.15     
  1695.51        500.000        3262.35     
  1692.31        500.000        3263.54     
  1689.10        500.000        3264.67     
  1685.90        500.000        3265.78     
  1682.69        500.000        3266.89     
  1679.49        500.000        3267.98     
  1676.28        500.000        3269.06     
  1673.08        500.000        3270.13     
  1669.87        500.000        3271.20     
  1666.67        500.000        3272.25     
  1663.46        500.000        3273.22     
  1660.26        500.000        3274.20     
  1657.05        500.000        3275.16     
  1653.85        500.000        3276.11     
  1650.64        500.000        3277.06     
  1647.44        500.000        3278.00     
  1644.23        500.000        3278.94     
  1641.03        500.000        3279.86     
  1637.82        500.000        3280.74     
  1634.62        500.000        3281.61     
  1631.41        500.000        3282.47     
  1628.21        500.000        3283.33     
  1625.00        500.000        3284.16     
  1621.79        500.000        3284.98     
  1618.59        500.000        3285.78     
  1615.38        500.000        3285.23     
  1612.18        500.000        3284.59     
  1608.97        500.000        3283.98     
  1605.77        500.000        3283.41     
  1602.56        500.000        3282.87     
  1599.36        500.000        3282.36     
  1596.15        500.000        3281.88     
  1592.95        500.000        3281.42     
  1589.74        500.000        3280.99     
  1586.54        500.000        3280.85     
  1583.33        500.000        3280.71     
  1580.13        500.000        3280.59     
  1576.92        500.000        3280.48     
  1573.72        500.000        3280.38     
  1570.51        500.000        3280.30     
  1567.31        500.000        3280.22     
  1564.10        500.000        3280.15     
  1560.90        500.000        3280.22     
  1557.69        500.000        3280.29     
  1554.49        500.000        3280.37     
  1551.28        500.000        3280.46     
  1548.08        500.000        3280.55     
  1544.87        500.000        3280.64     
  1541.67        500.000        3280.74     
  1538.46        500.000        3280.85     
  1535.26        500.000        3281.01     
  1532.05        500.000        3281.18     
  1528.85        500.000        3281.35     
  1525.64        500.000        3281.53     
  1522.44        500.000        3281.71     
  1519.23        500.000        3281.89     
  1516.03        500.000        3282.08     
  1512.82        500.000        3282.27     
  1509.62        500.000        3282.49     
  1506.41        500.000        3282.72     
  1503.21        500.000        3282.95     
  1500.00        500.000        3283.18     
  1496.79        500.000        3283.42     
  1493.59        500.000        3283.65     
  1490.38        500.000        3283.89     
  1487.18        500.000        3284.14     
  1483.97        500.000        3284.39     
  1480.77        500.000        3284.66     
  1477.56        500.000        3284.92     
  1474.36        500.000        3285.24     
  1471.15        500.000        3285.60     
  1467.95        500.000        3285.96     
  1464.74        500.000        3286.31     
  1461.54        500.000        3286.67     
  1458.33        500.000        3287.06     
  1455.13        500.000        3287.45     
  1451.92        500.000        3287.85     
  1448.72        500.000        3288.23     
  1445.51        500.000        3288.67     
  1442.31        500.000        3289.11     
  1439.10        500.000        3289.55     
  1435.90        500.000        3289.73     
  1432.69        500.000        3290.17     
  1429.49        500.000        3290.51     
  1426.28        500.000        3290.85     
  1423.08        500.000        3290.07     
  1419.87        500.000        3290.51     
  1416.67        500.000        3290.94     
  1413.46        500.000        3291.38     
  1410.26        500.000        3287.80     
  1407.05        500.000        3288.23     
  1403.85        500.000        3288.67     
  1400.64        500.000        3289.10     
  1397.44        500.000        3289.54     
  1394.23        500.000        3289.97     
  1391.03        500.000        3290.40     
  1387.82        500.000        3290.84     
  1384.62        500.000        3285.48     
  1381.41        500.000        3285.90     
  1378.21        500.000        3286.33     
  1375.00        500.000        3286.76     
  1371.79        500.000        3287.19     
  1368.59        500.000        3287.62     
  1365.38        500.000        3288.05     
  1362.18        500.000        3288.48     
  1358.97        500.000        3284.50     
  1355.77        500.000        3284.92     
  1352.56        500.000        3285.35     
  1349.36        500.000        3285.77     
  1346.15        500.000        3286.20     
  1342.95        500.000        3286.62     
  1339.74        500.000        3287.04     
  1336.54        500.000        3287.47     
  1333.33        500.000        3284.20     
  1330.13        500.000        3284.62     
  1326.92        500.000        3285.04     
  1323.72        500.000        3285.46     
  1320.51        500.000        3285.88     
  1317.31        500.000        3286.30     
  1314.10        500.000        3286.72     
  1310.90        500.000        3287.14     
  1307.69        500.000        3284.37     
  1304.49        500.000        3284.79     
  1301.28        500.000        3285.21     
  1298.08        500.000        3285.62     
  1294.87        500.000        3284.61     
  1291.67        500.000        3285.03     
  1288.46        500.000        3284.77     
  1285.26        500.000        3284.86     
  1282.05        500.000        3278.70     
  1278.85        500.000        3276.26     
  1275.64        500.000        3276.62     
  1272.44        500.000        3277.03     
  1269.23        500.000        3277.34     
  1266.03        500.000        3277.75     
  1262.82        500.000        3278.16     
  1259.62        500.000        3278.57     
  1256.41        500.000        3278.78     
  1253.21        500.000        3279.19     
  1250.00        500.000        3279.60     
  1246.79        500.000        3280.01     
  1243.59        500.000        3280.42     
  1240.38        500.000        3280.83     
  1237.18        500.000        3281.23     
  1233.97        500.000        3281.64     
  1230.77        500.000        3281.68     
  1227.56        500.000        3282.08     
  1224.36        500.000        3282.49     
  1221.15        500.000        3282.90     
  1217.95        500.000        3283.30     
  1214.74        500.000        3283.71     
  1211.54        500.000        3284.12     
  1208.33        500.000        3284.52     
  1205.13        500.000        3284.58     
  1201.92        500.000        3284.98     
  1198.72        500.000        3285.39     
  1195.51        500.000        3285.79     
  1192.31        500.000        3286.20     
  1189.10        500.000        3286.60     
  1185.90        500.000        3287.01     
  1182.69        500.000        3287.41     
  1179.49        500.000        3287.50     
  1176.28        500.000        3287.90     
  1173.08        500.000        3288.30     
  1169.87        500.000        3288.70     
  1166.67        500.000        3289.11     
  1163.46        500.000        3289.51     
  1160.26        500.000        3289.91     
  1157.05        500.000        3290.31     
  1153.85        500.000        3290.43     
  1150.64        500.000        3290.83     
  1147.44        500.000        3291.23     
  1144.23        500.000        3291.63     
  1141.03        500.000        3292.03     
  1137.82        500.000        3292.43     
  1134.62        500.000        3292.83     
  1131.41        500.000        3293.23     
  1128.21        500.000        3293.37     
  1125.00        500.000        3293.77     
  1121.79        500.000        3294.17     
  1118.59        500.000        3294.57     
  1115.38        500.000        3294.97     
  1112.18        500.000        3295.36     
  1108.97        500.000        3295.76     
  1105.77        500.000        3296.16     
  1102.56        500.000        3296.34     
  1099.36        500.000        3296.73     
  1096.15        500.000        3297.13     
  1092.95        500.000        3297.52     
  1089.74        500.000        3297.92     
  1086.54        500.000        3298.32     
  1083.33        500.000        3298.71     
  1080.13        500.000        3299.11     
  1076.92        500.000        3299.32     
  1073.72        500.000        3299.71     
  1070.51        500.000        3300.10     
  1067.31        500.000        3300.50     
  1064.10        500.000        3300.89     
  1060.90        500.000        3301.28     
  1057.69        500.000        3301.68     
  1054.49        500.000        3302.07     
  1051.28        500.000        3302.31     
  1048.08        500.000        3302.70     
  1044.87        500.000        3303.10     
  1041.67        500.000        3303.49     
  1038.46        500.000        3303.88     
  1035.26        500.000        3304.27     
  1032.05        500.000        3304.66     
  1028.85        500.000        3305.05     
  1025.64        500.000        3305.33     
  1022.44        500.000        3305.72     
  1019.23        500.000        3306.11     
  1016.03        500.000        3306.50     
  1012.82        500.000        3306.89     
  1009.62        500.000        3307.28     
  1006.41        500.000        3307.67     
  1003.21        500.000        3308.06     
  1000.00        500.000        3308.38     
