|6.6.6
Archiving\03_Data\eqfrac/QFM/WD94/WD94_6.tab                              
           1
T(K)    
  0.000000000000000E+000
  0.000000000000000E+000
           0
           3
T(K)           P(bar)         rho,kg/m3     
  1592.95        2500.00        3408.56     
  1591.46        2500.00        3260.96     
  1589.98        2500.00        3259.08     
  1588.49        2500.00        3264.06     
  1587.01        2500.00        3259.56     
  1585.52        2500.00        3259.72     
  1584.03        2500.00        3261.26     
  1582.55        2500.00        3262.02     
  1581.06        2500.00        3262.81     
  1579.58        2500.00        3262.57     
  1578.09        2500.00        3263.49     
  1576.60        2500.00        3265.44     
  1575.12        2500.00        3265.30     
  1573.63        2500.00        3265.98     
  1572.14        2500.00        3266.93     
  1570.66        2500.00        3267.34     
  1569.17        2500.00        3266.02     
  1567.69        2500.00        3267.70     
  1566.20        2500.00        3268.53     
  1564.71        2500.00        3269.79     
  1563.23        2500.00        3269.82     
  1561.74        2500.00        3270.24     
  1560.26        2500.00        3271.43     
  1558.77        2500.00        3271.72     
  1557.28        2500.00        3272.74     
  1555.80        2500.00        3272.95     
  1554.31        2500.00        3371.92     
  1552.83        2500.00        3274.58     
  1551.34        2500.00        3276.21     
  1549.85        2500.00        3275.08     
  1548.37        2500.00        3275.77     
  1546.88        2500.00        3276.40     
  1545.40        2500.00        3277.22     
  1543.91        2500.00        3261.01     
  1542.42        2500.00        3376.20     
  1540.94        2500.00        3280.25     
  1539.45        2500.00        3270.22     
  1537.96        2500.00        3281.31     
  1536.48        2500.00        3280.67     
  1534.99        2500.00        3281.34     
  1533.51        2500.00        3282.26     
  1532.02        2500.00        3283.48     
  1530.53        2500.00        3284.08     
  1529.05        2500.00        3283.72     
  1527.56        2500.00        3284.43     
  1526.08        2500.00        3285.22     
  1524.59        2500.00        3286.62     
  1523.10        2500.00        3286.46     
  1521.62        2500.00        3277.98     
  1520.13        2500.00        3295.41     
  1518.65        2500.00        3288.49     
  1517.16        2500.00        3289.22     
  1515.67        2500.00        3291.31     
  1514.19        2500.00        3289.27     
  1512.70        2500.00        3290.18     
  1511.22        2500.00        3290.68     
  1509.73        2500.00        3291.39     
  1508.24        2500.00        3291.40     
  1506.76        2500.00        3291.35     
  1505.27        2500.00        3292.82     
  1503.78        2500.00        3293.16     
  1502.30        2500.00        3293.63     
  1500.81        2500.00        2846.17     
  1499.33        2500.00        2846.43     
  1497.84        2500.00        3295.24     
  1496.35        2500.00        3295.83     
  1494.87        2500.00        3292.83     
  1493.38        2500.00        3297.17     
  1491.90        2500.00        3296.12     
  1490.41        2500.00        3296.84     
  1488.92        2500.00        3297.54     
  1487.44        2500.00        3298.28     
  1485.95        2500.00        3299.49     
  1484.47        2500.00        3299.42     
  1482.98        2500.00        3299.63     
  1481.49        2500.00        3300.14     
  1480.01        2500.00        3300.04     
  1478.52        2500.00        3301.41     
  1477.03        2500.00        2842.40     
  1475.55        2500.00        3300.85     
  1474.06        2500.00        3302.27     
  1472.58        2500.00        3302.59     
  1471.09        2500.00        3294.99     
  1469.60        2500.00        3279.39     
  1468.12        2500.00        3280.17     
  1466.63        2500.00        3281.17     
  1465.15        2500.00        3282.49     
  1463.66        2500.00        3283.43     
  1462.17        2500.00        3284.73     
  1460.69        2500.00        3285.80     
  1459.20        2500.00        3287.20     
  1457.72        2500.00        3288.14     
  1456.23        2500.00        3289.19     
  1454.74        2500.00        3291.32     
  1453.26        2500.00        3290.29     
  1451.77        2500.00        3292.90     
  1450.29        2500.00        3293.97     
  1448.80        2500.00        3294.94     
  1447.31        2500.00        3293.33     
  1445.83        2500.00        3299.37     
  1444.34        2500.00        3298.45     
  1442.85        2500.00        3299.59     
  1441.37        2500.00        3300.78     
  1439.88        2500.00        3303.25     
  1438.40        2500.00        3302.40     
  1436.91        2500.00        3303.52     
  1435.42        2500.00        3304.88     
  1433.94        2500.00        3306.06     
  1432.45        2500.00        3306.99     
  1430.97        2500.00        3308.10     
  1429.48        2500.00        3309.17     
  1427.99        2500.00        3310.99     
  1426.51        2500.00        3311.32     
  1425.02        2500.00        3312.64     
  1423.54        2500.00        3313.56     
  1422.05        2500.00        3314.63     
  1420.56        2500.00        3315.37     
  1419.08        2500.00        3316.73     
  1417.59        2500.00        3317.72     
  1416.11        2500.00        3322.08     
  1414.62        2500.00        3316.19     
  1413.13        2500.00        3320.83     
  1411.65        2500.00        3304.90     
  1410.16        2500.00        3143.48     
  1408.67        2500.00        3144.64     
  1407.19        2500.00        3146.38     
  1405.70        2500.00        3148.47     
  1404.22        2500.00        3150.15     
  1402.73        2500.00        3152.14     
  1401.24        2500.00        3154.00     
  1399.76        2500.00        3155.97     
  1398.27        2500.00        3157.87     
  1396.79        2500.00        3159.77     
  1395.30        2500.00        3162.07     
  1393.81        2500.00        3164.12     
  1392.33        2500.00        3165.53     
  1390.84        2500.00        3167.67     
  1389.36        2500.00        3169.50     
  1387.87        2500.00        3171.43     
  1386.38        2500.00        3173.41     
  1384.90        2500.00        3175.61     
  1383.41        2500.00        3177.40     
  1381.93        2500.00        3179.38     
  1380.44        2500.00        3181.52     
  1378.95        2500.00        3183.36     
  1377.47        2500.00        3185.58     
  1375.98        2500.00        3187.69     
  1374.49        2500.00        3189.57     
  1373.01        2500.00        3191.76     
  1371.52        2500.00        3193.83     
  1370.04        2500.00        3195.77     
  1368.55        2500.00        3197.78     
  1367.06        2500.00        3199.88     
  1365.58        2500.00        3202.07     
  1364.09        2500.00        3204.15     
  1362.61        2500.00        3206.07     
  1361.12        2500.00        3208.19     
  1359.63        2500.00        3209.98     
  1358.15        2500.00        3212.41     
  1356.66        2500.00        3214.35     
  1355.18        2500.00        3216.48     
  1353.69        2500.00        3219.03     
  1352.20        2500.00        3220.57     
  1350.72        2500.00        3222.62     
  1349.23        2500.00        3224.77     
  1347.75        2500.00        3226.63     
  1346.26        2500.00        3228.78     
  1344.77        2500.00        3230.82     
  1343.29        2500.00        3232.61     
  1341.80        2500.00        3234.85     
  1340.31        2500.00        3236.77     
  1338.83        2500.00        3238.96     
  1337.34        2500.00        3241.07     
  1335.86        2500.00        3242.81     
  1334.37        2500.00        3244.50     
  1332.88        2500.00        3246.80     
  1331.40        2500.00        3248.52     
  1329.91        2500.00        3250.46     
  1328.43        2500.00        3252.41     
  1326.94        2500.00        3254.43     
  1325.45        2500.00        3256.05     
  1323.97        2500.00        3257.83     
  1322.48        2500.00        3259.57     
  1321.00        2500.00        3277.55     
  1319.51        2500.00        2707.72     
  1318.02        2500.00        3322.01     
  1316.54        2500.00        3380.77     
  1315.05        2500.00        3380.52     
  1313.57        2500.00        3380.20     
  1312.08        2500.00        3379.66     
  1310.59        2500.00        3379.12     
  1309.11        2500.00        3378.75     
  1307.62        2500.00        3378.02     
  1306.13        2500.00        3377.43     
  1304.65        2500.00        3376.88     
  1303.16        2500.00        3376.22     
  1301.68        2500.00        3375.63     
  1300.19        2500.00        3374.60     
  1298.70        2500.00        3374.34     
  1297.22        2500.00        2861.72     
  1295.73        2500.00        2859.00     
  1294.25        2500.00        2858.14     
  1292.76        2500.00        2857.36     
  1291.27        2500.00        2856.62     
  1289.79        2500.00        2856.09     
  1288.30        2500.00        2855.66     
  1286.82        2500.00        2855.12     
  1285.33        2500.00        2853.92     
  1283.84        2500.00        2853.75     
  1282.36        2500.00        2855.35     
  1280.87        2500.00        2751.81     
  1279.38        2500.00        2871.25     
  1277.90        2500.00        2849.95     
  1276.41        2500.00        2849.25     
  1274.93        2500.00        2523.54     
  1273.44        2500.00        3491.40     
  1271.95        2500.00        2847.91     
  1270.47        2500.00        2847.26     
  1268.98        2500.00        2847.21     
  1267.50        2500.00        2846.13     
  1266.01        2500.00        2837.05     
  1264.52        2500.00        2846.41     
  1263.04        2500.00        2836.38     
  1261.55        2500.00        2896.83     
  1260.07        2500.00        2813.30     
  1258.58        2500.00        2834.38     
  1257.09        2500.00        2892.50     
  1255.61        2500.00        2837.01     
  1254.12        2500.00        2775.47     
  1252.64        2500.00        2822.61     
  1251.15        2500.00        2547.29     
  1249.66        2500.00        2511.09     
  1248.18        2500.00        2823.21     
  1246.69        2500.00        2823.67     
  1245.20        2500.00        2823.48     
  1243.72        2500.00        2897.13     
  1242.23        2500.00        2819.01     
  1240.75        2500.00        2825.69     
  1239.26        2500.00        2817.96     
  1237.77        2500.00        2848.00     
  1236.29        2500.00        2790.45     
  1234.80        2500.00        2817.49     
  1233.32        2500.00        2814.02     
  1231.83        2500.00        2821.46     
  1230.34        2500.00        2813.94     
  1228.86        2500.00        2818.30     
  1227.37        2500.00        2836.07     
  1225.89        2500.00        3041.89     
  1224.40        2500.00        2671.51     
  1222.91        2500.00        2671.60     
  1221.43        2500.00        2671.69     
  1219.94        2500.00        2671.64     
  1218.46        2500.00        2671.73     
  1216.97        2500.00        2671.86     
  1215.48        2500.00        2672.00     
  1214.00        2500.00        2672.13     
  1212.51        2500.00        2672.24     
  1211.02        2500.00        2672.35     
  1209.54        2500.00        2672.47     
  1208.05        2500.00        2672.59     
  1206.57        2500.00        2672.71     
  1205.08        2500.00        2672.83     
  1203.59        2500.00        2672.95     
  1202.11        2500.00        2673.08     
  1200.62        2500.00        2673.21     
  1199.14        2500.00        2673.34     
  1197.65        2500.00        2673.47     
  1196.16        2500.00        2673.61     
  1194.68        2500.00        2673.74     
  1193.19        2500.00        2673.87     
  1191.71        2500.00        2674.00     
  1190.22        2500.00        2674.13     
  1188.73        2500.00        2674.26     
  1187.25        2500.00        2674.39     
  1185.76        2500.00        2674.52     
  1184.28        2500.00        2674.68     
  1182.79        2500.00        2674.81     
  1181.30        2500.00        2674.93     
  1179.82        2500.00        2675.07     
  1178.33        2500.00        2675.19     
  1176.84        2500.00        2675.31     
  1175.36        2500.00        2675.43     
  1173.87        2500.00        2675.56     
  1172.39        2500.00        2675.97     
  1170.90        2500.00        2676.04     
  1169.41        2500.00        2676.12     
  1167.93        2500.00        2676.19     
  1166.44        2500.00        2676.27     
  1164.96        2500.00        2676.34     
  1163.47        2500.00        2676.42     
  1161.98        2500.00        2676.49     
  1160.50        2500.00        2676.57     
  1159.01        2500.00        2676.74     
  1157.53        2500.00        2676.87     
  1156.04        2500.00        2677.03     
  1154.55        2500.00        2677.10     
  1153.07        2500.00        2677.27     
  1151.58        2500.00        2677.40     
  1150.10        2500.00        2677.48     
  1148.61        2500.00        2677.55     
  1147.12        2500.00        2677.63     
  1145.64        2500.00        2677.79     
  1144.15        2500.00        2677.87     
  1142.66        2500.00        2678.14     
  1141.18        2500.00        2678.26     
  1139.69        2500.00        2678.38     
  1138.21        2500.00        2678.51     
  1136.72        2500.00        2678.63     
  1135.23        2500.00        2678.58     
  1133.75        2500.00        2678.80     
  1132.26        2500.00        2678.87     
  1130.78        2500.00        2679.12     
  1129.29        2500.00        2679.25     
  1127.80        2500.00        2679.37     
  1126.32        2500.00        2679.50     
  1124.83        2500.00        2679.51     
  1123.35        2500.00        2679.59     
  1121.86        2500.00        2679.80     
  1120.37        2500.00        2679.88     
  1118.89        2500.00        2680.11     
  1117.40        2500.00        2680.24     
  1115.92        2500.00        2680.36     
  1114.43        2500.00        2680.49     
  1112.94        2500.00        2680.61     
  1111.46        2500.00        2680.73     
  1109.97        2500.00        2680.86     
  1108.48        2500.00        2680.98     
  1107.00        2500.00        2681.10     
  1105.51        2500.00        2681.23     
  1104.03        2500.00        2681.26     
  1102.54        2500.00        2681.48     
  1101.05        2500.00        2681.61     
  1099.57        2500.00        2681.73     
  1098.08        2500.00        2681.85     
  1096.60        2500.00        2681.98     
  1095.11        2500.00        2682.10     
  1093.62        2500.00        2682.23     
  1092.14        2500.00        2682.35     
  1090.65        2500.00        2682.48     
  1089.17        2500.00        2682.60     
  1087.68        2500.00        2682.73     
  1086.19        2500.00        2682.86     
  1084.71        2500.00        2682.98     
  1083.22        2500.00        2683.11     
  1081.73        2500.00        2683.05     
  1080.25        2500.00        2683.36     
  1078.76        2500.00        2683.48     
  1077.28        2500.00        2683.52     
  1075.79        2500.00        2683.74     
  1074.30        2500.00        2683.87     
  1072.82        2500.00        2684.00     
  1071.33        2500.00        2684.12     
  1069.85        2500.00        2684.25     
  1068.36        2500.00        2684.37     
  1066.87        2500.00        2684.51     
  1065.39        2500.00        2684.62     
  1063.90        2500.00        2684.75     
  1062.42        2500.00        2684.88     
  1060.93        2500.00        2685.01     
  1059.44        2500.00        2685.14     
  1057.96        2500.00        2685.27     
  1056.47        2500.00        2685.40     
  1054.99        2500.00        2685.57     
  1053.50        2500.00        2685.66     
  1052.01        2500.00        2685.80     
  1050.53        2500.00        2685.93     
  1049.04        2500.00        2686.06     
  1047.55        2500.00        2686.19     
  1046.07        2500.00        2686.33     
  1044.58        2500.00        2686.46     
  1043.10        2500.00        2686.60     
  1041.61        2500.00        2686.72     
  1040.12        2500.00        2686.86     
  1038.64        2500.00        2686.99     
  1037.15        2500.00        2687.13     
  1035.67        2500.00        2687.26     
  1034.18        2500.00        2687.40     
  1032.69        2500.00        2687.53     
  1031.21        2500.00        2687.67     
  1029.72        2500.00        2687.80     
  1028.24        2500.00        2687.95     
  1026.75        2500.00        2688.08     
  1025.26        2500.00        2688.22     
  1023.78        2500.00        2688.34     
  1022.29        2500.00        2688.55     
  1020.81        2500.00        2688.63     
  1019.32        2500.00        2688.71     
  1017.83        2500.00        2688.86     
  1016.35        2500.00        2688.93     
  1014.86        2500.00        2689.02     
  1013.37        2500.00        2689.09     
  1011.89        2500.00        2689.25     
  1010.40        2500.00        2689.32     
  1008.92        2500.00        2689.76     
  1007.43        2500.00        2689.91     
  1005.94        2500.00        2690.05     
  1004.46        2500.00        2690.20     
  1002.97        2500.00        2690.34     
  1001.49        2500.00        2690.49     
  1000.00        2500.00        2690.65     
