|6.6.6
Archiving\03_Data\Deq/QFM_m0.75/WD94/WD94_3.tab                           
           1
T(K)    
  0.000000000000000E+000
  0.000000000000000E+000
           0
           9
T(K)           P(bar)         melt(TH)       Sp(TH)         O(HP)          Opx(TH)        Cpx(TH)        Cpx(TH)        an            
  2000.00        2500.00        100.000                 NaN            NaN            NaN            NaN            NaN            NaN
  1996.79        2500.00        100.000                 NaN            NaN            NaN            NaN            NaN            NaN
  1993.59        2500.00        100.000                 NaN            NaN            NaN            NaN            NaN            NaN
  1990.38        2500.00        100.000                 NaN            NaN            NaN            NaN            NaN            NaN
  1987.18        2500.00        100.000                 NaN            NaN            NaN            NaN            NaN            NaN
  1983.97        2500.00        100.000                 NaN            NaN            NaN            NaN            NaN            NaN
  1980.77        2500.00        100.000                 NaN            NaN            NaN            NaN            NaN            NaN
  1977.56        2500.00        100.000                 NaN            NaN            NaN            NaN            NaN            NaN
  1974.36        2500.00        100.000                 NaN            NaN            NaN            NaN            NaN            NaN
  1971.15        2500.00        100.000                 NaN            NaN            NaN            NaN            NaN            NaN
  1967.95        2500.00        100.000                 NaN            NaN            NaN            NaN            NaN            NaN
  1964.74        2500.00        100.000                 NaN            NaN            NaN            NaN            NaN            NaN
  1961.54        2500.00        100.000                 NaN            NaN            NaN            NaN            NaN            NaN
  1958.33        2500.00        100.000                 NaN            NaN            NaN            NaN            NaN            NaN
  1955.13        2500.00        100.000                 NaN            NaN            NaN            NaN            NaN            NaN
  1951.92        2500.00        100.000                 NaN            NaN            NaN            NaN            NaN            NaN
  1948.72        2500.00        100.000                 NaN            NaN            NaN            NaN            NaN            NaN
  1945.51        2500.00        100.000                 NaN            NaN            NaN            NaN            NaN            NaN
  1942.31        2500.00        100.000                 NaN            NaN            NaN            NaN            NaN            NaN
  1939.10        2500.00        100.000                 NaN            NaN            NaN            NaN            NaN            NaN
  1935.90        2500.00        100.000                 NaN            NaN            NaN            NaN            NaN            NaN
  1932.69        2500.00        100.000                 NaN            NaN            NaN            NaN            NaN            NaN
  1929.49        2500.00        100.000                 NaN            NaN            NaN            NaN            NaN            NaN
  1926.28        2500.00        100.000                 NaN            NaN            NaN            NaN            NaN            NaN
  1923.08        2500.00        100.000                 NaN            NaN            NaN            NaN            NaN            NaN
  1919.87        2500.00        100.000                 NaN            NaN            NaN            NaN            NaN            NaN
  1916.67        2500.00        100.000                 NaN            NaN            NaN            NaN            NaN            NaN
  1913.46        2500.00        99.7408                 NaN  0.259191                 NaN            NaN            NaN            NaN
  1910.26        2500.00        99.1969                 NaN  0.803116                 NaN            NaN            NaN            NaN
  1907.05        2500.00        98.3309                 NaN   1.66914                 NaN            NaN            NaN            NaN
  1903.85        2500.00        97.4637                 NaN   2.53625                 NaN            NaN            NaN            NaN
  1900.64        2500.00        96.7240                 NaN   3.27601                 NaN            NaN            NaN            NaN
  1897.44        2500.00        95.9852       0.550187E-002   4.00925                 NaN            NaN            NaN            NaN
  1894.23        2500.00        95.2922       0.170860E-001   4.69068                 NaN            NaN            NaN            NaN
  1891.03        2500.00        94.5985       0.286836E-001   5.37285                 NaN            NaN            NaN            NaN
  1887.82        2500.00        93.9039       0.402946E-001   6.05579                 NaN            NaN            NaN            NaN
  1884.62        2500.00        93.2086       0.519188E-001   6.73947                 NaN            NaN            NaN            NaN
  1881.41        2500.00        92.5125       0.635563E-001   7.42391                 NaN            NaN            NaN            NaN
  1878.21        2500.00        91.8157       0.752070E-001   8.10908                 NaN            NaN            NaN            NaN
  1875.00        2500.00        91.1181       0.868709E-001   8.79500                 NaN            NaN            NaN            NaN
  1871.79        2500.00        90.4198       0.985478E-001   9.48166                 NaN            NaN            NaN            NaN
  1868.59        2500.00        89.7418       0.109361        10.1488                 NaN            NaN            NaN            NaN
  1865.38        2500.00        89.0631       0.120186        10.8167                 NaN            NaN            NaN            NaN
  1862.18        2500.00        88.3837       0.131023        11.4853                 NaN            NaN            NaN            NaN
  1858.97        2500.00        87.7035       0.141873        12.1546                 NaN            NaN            NaN            NaN
  1855.77        2500.00        87.0226       0.152734        12.8247                 NaN            NaN            NaN            NaN
  1852.56        2500.00        86.3410       0.163608        13.4954                 NaN            NaN            NaN            NaN
  1849.36        2500.00        85.6587       0.174493        14.1668                 NaN            NaN            NaN            NaN
  1846.15        2500.00        84.9756       0.185390        14.8390                 NaN            NaN            NaN            NaN
  1842.95        2500.00        84.3410       0.195432        15.4636                 NaN            NaN            NaN            NaN
  1839.74        2500.00        83.7058       0.205483        16.0887                 NaN            NaN            NaN            NaN
  1836.54        2500.00        83.0700       0.215545        16.7145                 NaN            NaN            NaN            NaN
  1833.33        2500.00        82.4335       0.225617        17.3409                 NaN            NaN            NaN            NaN
  1830.13        2500.00        81.7965       0.235699        17.9678                 NaN            NaN            NaN            NaN
  1826.92        2500.00        81.1588       0.245791        18.5954                 NaN            NaN            NaN            NaN
  1823.72        2500.00        80.5205       0.255894        19.2236                 NaN            NaN            NaN            NaN
  1820.51        2500.00        79.8817       0.266006        19.8523                 NaN            NaN            NaN            NaN
  1817.31        2500.00        79.2677       0.275294        20.4570                 NaN            NaN            NaN            NaN
  1814.10        2500.00        78.6532       0.284591        21.0622                 NaN            NaN            NaN            NaN
  1810.90        2500.00        78.0382       0.293896        21.6679                 NaN            NaN            NaN            NaN
  1807.69        2500.00        77.4226       0.303211        22.2742                 NaN            NaN            NaN            NaN
  1804.49        2500.00        76.8065       0.312534        22.8810                 NaN            NaN            NaN            NaN
  1801.28        2500.00        76.1898       0.321865        23.4883                 NaN            NaN            NaN            NaN
  1798.08        2500.00        75.5726       0.331206        24.0962                 NaN            NaN            NaN            NaN
  1794.87        2500.00        74.9548       0.340554        24.7046                 NaN            NaN            NaN            NaN
  1791.67        2500.00        74.3563       0.349140        25.2945                 NaN            NaN            NaN            NaN
  1788.46        2500.00        73.7573       0.357733        25.8849                 NaN            NaN            NaN            NaN
  1785.26        2500.00        73.1579       0.366334        26.4758                 NaN            NaN            NaN            NaN
  1782.05        2500.00        72.5579       0.374942        27.0672                 NaN            NaN            NaN            NaN
  1778.85        2500.00        71.9574       0.383557        27.6590                 NaN            NaN            NaN            NaN
  1775.64        2500.00        71.3565       0.392180        28.2513                 NaN            NaN            NaN            NaN
  1772.44        2500.00        70.7551       0.400810        28.8441                 NaN            NaN            NaN            NaN
  1769.23        2500.00        70.1532       0.409447        29.4374                 NaN            NaN            NaN            NaN
  1766.03        2500.00        69.5655       0.417212        30.0173                 NaN            NaN            NaN            NaN
  1762.82        2500.00        68.9773       0.424984        30.5977                 NaN            NaN            NaN            NaN
  1759.62        2500.00        68.3887       0.432761        31.1785                 NaN            NaN            NaN            NaN
  1756.41        2500.00        67.7997       0.440545        31.7598                 NaN            NaN            NaN            NaN
  1753.21        2500.00        67.2102       0.448335        32.3414                 NaN            NaN            NaN            NaN
  1750.00        2500.00        66.6203       0.456131        32.9235                 NaN            NaN            NaN            NaN
  1746.79        2500.00        66.0300       0.463932        33.5061                 NaN            NaN            NaN            NaN
  1743.59        2500.00        65.4393       0.471739        34.0890                 NaN            NaN            NaN            NaN
  1740.38        2500.00        64.8743       0.479652        34.6461                 NaN            NaN            NaN            NaN
  1737.18        2500.00        64.3089       0.487570        35.2035                 NaN            NaN            NaN            NaN
  1733.97        2500.00        63.7432       0.495494        35.7613                 NaN            NaN            NaN            NaN
  1730.77        2500.00        63.1771       0.503423        36.3195                 NaN            NaN            NaN            NaN
  1727.56        2500.00        62.6106       0.511357        36.8780                 NaN            NaN            NaN            NaN
  1724.36        2500.00        62.0438       0.519297        37.4369                 NaN            NaN            NaN            NaN
  1721.15        2500.00        61.4767       0.527242        37.9961                 NaN            NaN            NaN            NaN
  1717.95        2500.00        60.9092       0.535192        38.5556                 NaN            NaN            NaN            NaN
  1714.74        2500.00        60.3732       0.542339        39.0845                 NaN            NaN            NaN            NaN
  1711.54        2500.00        59.8368       0.549491        39.6137                 NaN            NaN            NaN            NaN
  1708.33        2500.00        59.3002       0.556647        40.1432                 NaN            NaN            NaN            NaN
  1705.13        2500.00        58.7633       0.563806        40.6729                 NaN            NaN            NaN            NaN
  1701.92        2500.00        58.2261       0.570970        41.2029                 NaN            NaN            NaN            NaN
  1698.72        2500.00        57.6887       0.578137        41.7332                 NaN            NaN            NaN            NaN
  1695.51        2500.00        57.1510       0.585309        42.2637                 NaN            NaN            NaN            NaN
  1692.31        2500.00        56.6130       0.592484        42.7945                 NaN            NaN            NaN            NaN
  1689.10        2500.00        56.1091       0.598852        43.2920                 NaN            NaN            NaN            NaN
  1685.90        2500.00        55.6051       0.605224        43.7897                 NaN            NaN            NaN            NaN
  1682.69        2500.00        55.1008       0.611598        44.2876                 NaN            NaN            NaN            NaN
  1679.49        2500.00        54.5963       0.617975        44.7857                 NaN            NaN            NaN            NaN
  1676.28        2500.00        54.0916       0.624355        45.2841                 NaN            NaN            NaN            NaN
  1673.08        2500.00        53.5867       0.630737        45.7826                 NaN            NaN            NaN            NaN
  1669.87        2500.00        53.0816       0.637122        46.2813                 NaN            NaN            NaN            NaN
  1666.67        2500.00        52.5763       0.643510        46.7802                 NaN            NaN            NaN            NaN
  1663.46        2500.00        52.0947       0.650047        47.2553                 NaN            NaN            NaN            NaN
  1660.26        2500.00        51.6129       0.656587        47.7305                 NaN            NaN            NaN            NaN
  1657.05        2500.00        50.6584       0.658645        48.1392       0.543769                 NaN            NaN            NaN
  1653.85        2500.00        49.3464       0.657582        48.3731        1.62291                 NaN            NaN            NaN
  1650.64        2500.00        48.0886       0.654950        48.6066        2.64988                 NaN            NaN            NaN
  1647.44        2500.00        46.8276       0.652309        48.8405        3.67961                 NaN            NaN            NaN
  1644.23        2500.00        45.5632       0.649660        49.0750        4.71211                 NaN            NaN            NaN
  1641.03        2500.00        44.2956       0.647002        49.3100        5.74738                 NaN            NaN            NaN
  1637.82        2500.00        43.3091       0.643552        49.4853        6.56209                 NaN            NaN            NaN
  1634.62        2500.00        42.3206       0.640093        49.6608        7.37852                 NaN            NaN            NaN
  1631.41        2500.00        41.3301       0.636625        49.8366        8.19668                 NaN            NaN            NaN
  1628.21        2500.00        40.3375       0.633149        50.0127        9.01657                 NaN            NaN            NaN
  1625.00        2500.00        39.3430       0.629665        50.1891        9.83819                 NaN            NaN            NaN
  1621.79        2500.00        38.3465       0.626172        50.3658        10.6615                 NaN            NaN            NaN
  1618.59        2500.00        37.3480       0.622671        50.5427        11.4866                 NaN            NaN            NaN
  1615.38        2500.00        36.3474       0.619161        50.7200        12.3134                 NaN            NaN            NaN
  1612.18        2500.00        35.6006       0.614946        50.8418        12.9426                 NaN            NaN            NaN
  1608.97        2500.00        34.8527       0.610722        50.9639        13.5728                 NaN            NaN            NaN
  1605.77        2500.00        34.1036       0.606491        51.0860        14.2039                 NaN            NaN            NaN
  1602.56        2500.00        33.3534       0.602253        51.2083        14.8361                 NaN            NaN            NaN
  1599.36        2500.00        32.6020       0.598007        51.3307        15.4693                 NaN            NaN            NaN
  1596.15        2500.00        31.8496       0.593754        51.4532        16.1034                 NaN            NaN            NaN
  1592.95        2500.00        31.0960       0.589492        51.5759        16.7386                 NaN            NaN            NaN
  1589.74        2500.00        30.3413       0.585224        51.6987        17.3748                 NaN            NaN            NaN
  1586.54        2500.00        29.7320       0.579885        51.7922        17.8959                 NaN            NaN            NaN
  1583.33        2500.00        29.1220       0.574539        51.8858        18.4176                 NaN            NaN            NaN
  1580.13        2500.00        28.5113       0.569185        51.9795        18.9401                 NaN            NaN            NaN
  1576.92        2500.00        27.8998       0.563824        52.0732        19.4632                 NaN            NaN            NaN
  1573.72        2500.00        27.2876       0.558455        52.1670        19.9870                 NaN            NaN            NaN
  1570.51        2500.00        26.6746       0.553078        52.2609        20.5114                 NaN            NaN            NaN
  1567.31        2500.00        26.0609       0.547693        52.3549        21.0366                 NaN            NaN            NaN
  1564.10        2500.00        25.4464       0.542301        52.4489        21.5624                 NaN            NaN            NaN
  1560.90        2500.00        24.9265       0.535869        52.5215        22.0161                 NaN            NaN            NaN
  1557.69        2500.00        24.4061       0.529429        52.5941        22.4703                 NaN            NaN            NaN
  1554.49        2500.00        23.8852       0.522981        52.6668        22.9251                 NaN            NaN            NaN
  1551.28        2500.00        23.3637       0.516526        52.7395        23.3803                 NaN            NaN            NaN
  1548.08        2500.00        22.8417       0.510062        52.8122        23.8360                 NaN            NaN            NaN
  1544.87        2500.00        22.3192       0.503591        52.8850        24.2922                 NaN            NaN            NaN
  1541.67        2500.00        21.7961       0.497113        52.9578        24.7490                 NaN            NaN            NaN
  1538.46        2500.00        21.2724       0.490626        53.0307        25.2062                 NaN            NaN            NaN
