|6.6.6
Archiving\03_Data\eq/QFM_m2.5/GRV/GRV_3.tab                               
           1
T(K)    
  0.000000000000000E+000
  0.000000000000000E+000
           0
           9
T(K)           P(bar)         melt(TH)       pxmn           Sp(TH)         O(HP)          Opx(TH)        Cpx(TH)        Cpx(TH)       
  2000.00        2500.00        99.3199       0.680139                 NaN            NaN            NaN            NaN            NaN
  1996.79        2500.00        99.3198       0.680212                 NaN            NaN            NaN            NaN            NaN
  1993.59        2500.00        99.3197       0.680286                 NaN            NaN            NaN            NaN            NaN
  1990.38        2500.00        99.3196       0.680359                 NaN            NaN            NaN            NaN            NaN
  1987.18        2500.00        99.3196       0.680432                 NaN            NaN            NaN            NaN            NaN
  1983.97        2500.00        99.3195       0.680506                 NaN            NaN            NaN            NaN            NaN
  1980.77        2500.00        99.3194       0.680580                 NaN            NaN            NaN            NaN            NaN
  1977.56        2500.00        99.3193       0.680653                 NaN            NaN            NaN            NaN            NaN
  1974.36        2500.00        99.3193       0.680727                 NaN            NaN            NaN            NaN            NaN
  1971.15        2500.00        99.3192       0.680801                 NaN            NaN            NaN            NaN            NaN
  1967.95        2500.00        99.3191       0.680874                 NaN            NaN            NaN            NaN            NaN
  1964.74        2500.00        99.3191       0.680948                 NaN            NaN            NaN            NaN            NaN
  1961.54        2500.00        99.3190       0.681022                 NaN            NaN            NaN            NaN            NaN
  1958.33        2500.00        99.3189       0.681096                 NaN            NaN            NaN            NaN            NaN
  1955.13        2500.00        99.3188       0.681170                 NaN            NaN            NaN            NaN            NaN
  1951.92        2500.00        99.3188       0.681244                 NaN            NaN            NaN            NaN            NaN
  1948.72        2500.00        99.3187       0.681318                 NaN            NaN            NaN            NaN            NaN
  1945.51        2500.00        99.3186       0.681392                 NaN            NaN            NaN            NaN            NaN
  1942.31        2500.00        99.3185       0.681466                 NaN            NaN            NaN            NaN            NaN
  1939.10        2500.00        99.3185       0.681541                 NaN            NaN            NaN            NaN            NaN
  1935.90        2500.00        99.3184       0.681615                 NaN            NaN            NaN            NaN            NaN
  1932.69        2500.00        99.3183       0.681689                 NaN            NaN            NaN            NaN            NaN
  1929.49        2500.00        99.3182       0.681764                 NaN            NaN            NaN            NaN            NaN
  1926.28        2500.00        99.3182       0.681838                 NaN            NaN            NaN            NaN            NaN
  1923.08        2500.00        99.3181       0.681913                 NaN            NaN            NaN            NaN            NaN
  1919.87        2500.00        99.3180       0.681987                 NaN            NaN            NaN            NaN            NaN
  1916.67        2500.00        99.3179       0.682062                 NaN            NaN            NaN            NaN            NaN
  1913.46        2500.00        99.3179       0.682137                 NaN            NaN            NaN            NaN            NaN
  1910.26        2500.00        99.3178       0.682211                 NaN            NaN            NaN            NaN            NaN
  1907.05        2500.00        99.3177       0.682286                 NaN            NaN            NaN            NaN            NaN
  1903.85        2500.00        99.3176       0.682361                 NaN            NaN            NaN            NaN            NaN
  1900.64        2500.00        99.3176       0.682436                 NaN            NaN            NaN            NaN            NaN
  1897.44        2500.00        99.3175       0.682511                 NaN            NaN            NaN            NaN            NaN
  1894.23        2500.00        99.3174       0.682586                 NaN            NaN            NaN            NaN            NaN
  1891.03        2500.00        99.3173       0.682661                 NaN            NaN            NaN            NaN            NaN
  1887.82        2500.00        99.3173       0.682736                 NaN            NaN            NaN            NaN            NaN
  1884.62        2500.00        99.3172       0.682811                 NaN            NaN            NaN            NaN            NaN
  1881.41        2500.00        99.3171       0.682886                 NaN            NaN            NaN            NaN            NaN
  1878.21        2500.00        99.3170       0.682961                 NaN            NaN            NaN            NaN            NaN
  1875.00        2500.00        99.3170       0.683037                 NaN            NaN            NaN            NaN            NaN
  1871.79        2500.00        99.3169       0.683112                 NaN            NaN            NaN            NaN            NaN
  1868.59        2500.00        99.3168       0.683187                 NaN            NaN            NaN            NaN            NaN
  1865.38        2500.00        99.3167       0.683263                 NaN            NaN            NaN            NaN            NaN
  1862.18        2500.00        99.3167       0.683338                 NaN            NaN            NaN            NaN            NaN
  1858.97        2500.00        99.3166       0.683413                 NaN            NaN            NaN            NaN            NaN
  1855.77        2500.00        99.3165       0.683489                 NaN            NaN            NaN            NaN            NaN
  1852.56        2500.00        99.3164       0.683565                 NaN            NaN            NaN            NaN            NaN
  1849.36        2500.00        99.3164       0.683640                 NaN            NaN            NaN            NaN            NaN
  1846.15        2500.00        99.3163       0.683716                 NaN            NaN            NaN            NaN            NaN
  1842.95        2500.00        99.3162       0.683792                 NaN            NaN            NaN            NaN            NaN
  1839.74        2500.00        99.3161       0.683867                 NaN            NaN            NaN            NaN            NaN
  1836.54        2500.00        99.3161       0.683943                 NaN            NaN            NaN            NaN            NaN
  1833.33        2500.00        99.3160       0.684019                 NaN            NaN            NaN            NaN            NaN
  1830.13        2500.00        99.3159       0.684095                 NaN            NaN            NaN            NaN            NaN
  1826.92        2500.00        99.3158       0.684171                 NaN            NaN            NaN            NaN            NaN
  1823.72        2500.00        99.3158       0.684247                 NaN            NaN            NaN            NaN            NaN
  1820.51        2500.00        99.3096       0.684331       0.604057E-002            NaN            NaN            NaN            NaN
  1817.31        2500.00        99.2963       0.684426       0.192545E-001            NaN            NaN            NaN            NaN
  1814.10        2500.00        99.2830       0.684520       0.324722E-001            NaN            NaN            NaN            NaN
  1810.90        2500.00        99.2697       0.684614       0.456936E-001            NaN            NaN            NaN            NaN
  1807.69        2500.00        99.2564       0.684708       0.589189E-001            NaN            NaN            NaN            NaN
  1804.49        2500.00        99.2430       0.684802       0.721479E-001            NaN            NaN            NaN            NaN
  1801.28        2500.00        99.2297       0.684897       0.853807E-001            NaN            NaN            NaN            NaN
  1798.08        2500.00        99.2164       0.684991       0.986173E-001            NaN            NaN            NaN            NaN
  1794.87        2500.00        99.2031       0.685085       0.111858                 NaN            NaN            NaN            NaN
  1791.67        2500.00        99.1904       0.685179       0.124401                 NaN            NaN            NaN            NaN
  1788.46        2500.00        99.1778       0.685272       0.136948                 NaN            NaN            NaN            NaN
  1785.26        2500.00        99.1651       0.685365       0.149498                 NaN            NaN            NaN            NaN
  1782.05        2500.00        99.1525       0.685459       0.162052                 NaN            NaN            NaN            NaN
  1778.85        2500.00        99.1402       0.685552       0.174294                 NaN            NaN            NaN            NaN
  1775.64        2500.00        99.1278       0.685645       0.186539                 NaN            NaN            NaN            NaN
  1772.44        2500.00        99.1159       0.685737       0.198400                 NaN            NaN            NaN            NaN
  1769.23        2500.00        98.7519       0.685955       0.210421       0.351749                 NaN            NaN            NaN
  1766.03        2500.00        97.9831       0.686315       0.221903        1.10864                 NaN            NaN            NaN
  1762.82        2500.00        97.2136       0.686673       0.233397        1.86629                 NaN            NaN            NaN
  1759.62        2500.00        96.4434       0.687030       0.244902        2.62470                 NaN            NaN            NaN
  1756.41        2500.00        95.6723       0.687384       0.256418        3.38386                 NaN            NaN            NaN
  1753.21        2500.00        94.9005       0.687737       0.267945        4.14377                 NaN            NaN            NaN
  1750.00        2500.00        94.1280       0.688087       0.279484        4.90442                 NaN            NaN            NaN
  1746.79        2500.00        93.3547       0.688436       0.291033        5.66579                 NaN            NaN            NaN
  1743.59        2500.00        92.5807       0.688783       0.302593        6.42790                 NaN            NaN            NaN
  1740.38        2500.00        91.8035       0.689128       0.313253        7.19409                 NaN            NaN            NaN
  1737.18        2500.00        91.0256       0.689472       0.323922        7.96099                 NaN            NaN            NaN
  1733.97        2500.00        90.2470       0.689813       0.334601        8.72861                 NaN            NaN            NaN
  1730.77        2500.00        89.4676       0.690153       0.345290        9.49693                 NaN            NaN            NaN
  1727.56        2500.00        88.6876       0.690490       0.355987        10.2659                 NaN            NaN            NaN
  1724.36        2500.00        87.9068       0.690824       0.366694        11.0356                 NaN            NaN            NaN
  1721.15        2500.00        87.1254       0.691157       0.377410        11.8060                 NaN            NaN            NaN
  1717.95        2500.00        86.3433       0.691487       0.388135        12.5771                 NaN            NaN            NaN
  1714.74        2500.00        85.5778       0.691809       0.397978        13.3325                 NaN            NaN            NaN
  1711.54        2500.00        84.8116       0.692128       0.407827        14.0885                 NaN            NaN            NaN
  1708.33        2500.00        84.0447       0.692445       0.417685        14.8451                 NaN            NaN            NaN
  1705.13        2500.00        83.2773       0.692760       0.427550        15.6024                 NaN            NaN            NaN
  1701.92        2500.00        82.5093       0.693072       0.437422        16.3602                 NaN            NaN            NaN
  1698.72        2500.00        81.7406       0.693382       0.447302        17.1187                 NaN            NaN            NaN
  1695.51        2500.00        80.9714       0.693689       0.457189        17.8777                 NaN            NaN            NaN
  1692.31        2500.00        80.2016       0.693994       0.467082        18.6373                 NaN            NaN            NaN
  1689.10        2500.00        79.4606       0.694287       0.476308        19.3688                 NaN            NaN            NaN
  1685.90        2500.00        78.7190       0.694577       0.485539        20.1009                 NaN            NaN            NaN
  1682.69        2500.00        77.9769       0.694864       0.494777        20.8335                 NaN            NaN            NaN
  1679.49        2500.00        77.2343       0.695149       0.504020        21.5665                 NaN            NaN            NaN
  1676.28        2500.00        76.5103       0.695421       0.513087        22.2812                 NaN            NaN            NaN
  1673.08        2500.00        75.7858       0.695690       0.522160        22.9963                 NaN            NaN            NaN
  1669.87        2500.00        74.4891       0.696510       0.530480        23.5399       0.744050                 NaN            NaN
  1666.67        2500.00        72.3469       0.698150       0.537653        23.8151        2.60220                 NaN            NaN
  1663.46        2500.00        70.5825       0.699523       0.541986        24.0263        4.14971                 NaN            NaN
  1660.26        2500.00        68.8113       0.700901       0.546334        24.2382        5.70324                 NaN            NaN
  1657.05        2500.00        67.0332       0.702281       0.550698        24.4509        7.26283                 NaN            NaN
  1653.85        2500.00        65.2484       0.703665       0.555078        24.6644        8.82851                 NaN            NaN
  1650.64        2500.00        63.4566       0.705053       0.559474        24.8786        10.4003                 NaN            NaN
  1647.44        2500.00        61.6579       0.706443       0.563885        25.0936        11.9782                 NaN            NaN
  1644.23        2500.00        59.8523       0.707838       0.568312        25.3094        13.5622                 NaN            NaN
  1641.03        2500.00        58.0397       0.709235       0.572755        25.5259        15.1524                 NaN            NaN
  1637.82        2500.00        56.6902       0.710313       0.573106        25.6636        16.3628                 NaN            NaN
  1634.62        2500.00        55.3367       0.711393       0.573457        25.8017        17.5768                 NaN            NaN
  1631.41        2500.00        53.9792       0.712475       0.573808        25.9401        18.7944                 NaN            NaN
  1628.21        2500.00        52.6178       0.713558       0.574159        26.0789        20.0156                 NaN            NaN
  1625.00        2500.00        51.2523       0.714644       0.574510        26.2181        21.2404                 NaN            NaN
  1621.79        2500.00        49.8829       0.715731       0.574860        26.3577        22.4689                 NaN            NaN
  1618.59        2500.00        48.5094       0.716820       0.575211        26.4976        23.7010                 NaN            NaN
  1615.38        2500.00        47.1319       0.717911       0.575562        26.6378        24.9368                 NaN            NaN
  1612.18        2500.00        46.0119       0.718827       0.571881        26.7354        25.9619                 NaN            NaN
  1608.97        2500.00        44.8893       0.719745       0.568190        26.8332        26.9896                 NaN            NaN
  1605.77        2500.00        43.7639       0.720664       0.564488        26.9312        28.0197                 NaN            NaN
  1602.56        2500.00        42.6358       0.721585       0.560777        27.0294        29.0524                 NaN            NaN
  1599.36        2500.00        41.5049       0.722507       0.557055        27.1279        30.0877                 NaN            NaN
  1596.15        2500.00        40.3712       0.723430       0.553322        27.2265        31.1255                 NaN            NaN
  1592.95        2500.00        39.2348       0.724354       0.549580        27.3253        32.1659                 NaN            NaN
  1589.74        2500.00        38.0957       0.725279       0.545826        27.4244        33.2089                 NaN            NaN
  1586.54        2500.00        37.0522       0.726145       0.538347        27.5106        34.1727                 NaN            NaN
  1583.33        2500.00        36.0063       0.727012       0.530850        27.5971        35.1387                 NaN            NaN
  1580.13        2500.00        34.9581       0.727881       0.523333        27.6837        36.1070                 NaN            NaN
  1576.92        2500.00        33.9075       0.728750       0.515798        27.7705        37.0775                 NaN            NaN
  1573.72        2500.00        32.8774       0.729609       0.505621        27.8569        38.0305                 NaN            NaN
  1570.51        2500.00        31.8450       0.730468       0.495420        27.9435        38.9857                 NaN            NaN
  1567.31        2500.00        30.7420       0.731386       0.488597        28.0293        39.4348       0.573928                 NaN
  1564.10        2500.00        29.4352       0.732474       0.491761        28.1178        38.7601        2.46269                 NaN
  1560.90        2500.00        28.1008       0.733611       0.492672        28.2198        38.2160        4.23703                 NaN
  1557.69        2500.00        26.7626       0.734749       0.493586        28.3221        37.6701        6.01684                 NaN
  1554.49        2500.00        25.4204       0.735889       0.494504        28.4247        37.1225        7.80212                 NaN
  1551.28        2500.00        24.0742       0.737031       0.495424        28.5275        36.5730        9.59289                 NaN
  1548.08        2500.00        22.7302       0.738201       0.491672        28.6444        36.3284        11.0670                 NaN
  1544.87        2500.00        21.3660       0.739404       0.480902        28.7774        36.5405        11.6230       0.472801     
  1541.67        2500.00        21.3648       0.739425       0.480921        28.7779        36.5410        11.6231       0.472807     
  1538.46        2500.00        18.6982       0.741807       0.437445        29.0775        38.2723        3.33128        9.44143     
