|6.6.6
Archiving\03_Data\Deq/QFM/YM20/YM20_3.tab                               
           1
T(K)    
  0.000000000000000E+000
  0.000000000000000E+000
           0
           9
T(K)           P(bar)         melt(TH)       O(HP)          Sp(TH)         Opx(TH)        Cpx(TH)        Cpx(TH)        an            
  2000.00        2500.00        99.6529       0.347135                 NaN            NaN            NaN            NaN            NaN
  1996.79        2500.00        99.6378       0.362194                 NaN            NaN            NaN            NaN            NaN
  1993.59        2500.00        99.6227       0.377257                 NaN            NaN            NaN            NaN            NaN
  1990.38        2500.00        99.6077       0.392322                 NaN            NaN            NaN            NaN            NaN
  1987.18        2500.00        99.5926       0.407391                 NaN            NaN            NaN            NaN            NaN
  1983.97        2500.00        99.5775       0.422464                 NaN            NaN            NaN            NaN            NaN
  1980.77        2500.00        99.5625       0.437539                 NaN            NaN            NaN            NaN            NaN
  1977.56        2500.00        99.5474       0.452617                 NaN            NaN            NaN            NaN            NaN
  1974.36        2500.00        99.5323       0.467699                 NaN            NaN            NaN            NaN            NaN
  1971.15        2500.00        99.4999       0.500070                 NaN            NaN            NaN            NaN            NaN
  1967.95        2500.00        99.4676       0.532449                 NaN            NaN            NaN            NaN            NaN
  1964.74        2500.00        99.4352       0.564835                 NaN            NaN            NaN            NaN            NaN
  1961.54        2500.00        99.4028       0.597228                 NaN            NaN            NaN            NaN            NaN
  1958.33        2500.00        99.3704       0.629630                 NaN            NaN            NaN            NaN            NaN
  1955.13        2500.00        99.3380       0.662038                 NaN            NaN            NaN            NaN            NaN
  1951.92        2500.00        99.3055       0.694455                 NaN            NaN            NaN            NaN            NaN
  1948.72        2500.00        99.2731       0.726879                 NaN            NaN            NaN            NaN            NaN
  1945.51        2500.00        99.2073       0.792713                 NaN            NaN            NaN            NaN            NaN
  1942.31        2500.00        99.1414       0.858566                 NaN            NaN            NaN            NaN            NaN
  1939.10        2500.00        99.0756       0.924436                 NaN            NaN            NaN            NaN            NaN
  1935.90        2500.00        99.0097       0.990325                 NaN            NaN            NaN            NaN            NaN
  1932.69        2500.00        98.9166        1.08340                 NaN            NaN            NaN            NaN            NaN
  1929.49        2500.00        98.8235        1.17650                 NaN            NaN            NaN            NaN            NaN
  1926.28        2500.00        98.6582        1.34185                 NaN            NaN            NaN            NaN            NaN
  1923.08        2500.00        98.4976        1.49361       0.883696E-002            NaN            NaN            NaN            NaN
  1919.87        2500.00        98.1493        1.82788       0.228388E-001            NaN            NaN            NaN            NaN
  1916.67        2500.00        97.8008        2.16237       0.368505E-001            NaN            NaN            NaN            NaN
  1913.46        2500.00        97.4520        2.49709       0.508721E-001            NaN            NaN            NaN            NaN
  1910.26        2500.00        97.1031        2.83203       0.649035E-001            NaN            NaN            NaN            NaN
  1907.05        2500.00        96.7539        3.16720       0.789447E-001            NaN            NaN            NaN            NaN
  1903.85        2500.00        96.4044        3.50258       0.929957E-001            NaN            NaN            NaN            NaN
  1900.64        2500.00        96.0548        3.83819       0.107056                 NaN            NaN            NaN            NaN
  1897.44        2500.00        95.7049        4.17401       0.121127                 NaN            NaN            NaN            NaN
  1894.23        2500.00        95.1551        4.71161       0.133281                 NaN            NaN            NaN            NaN
  1891.03        2500.00        94.6049        5.24969       0.145447                 NaN            NaN            NaN            NaN
  1887.82        2500.00        94.0541        5.78826       0.157624                 NaN            NaN            NaN            NaN
  1884.62        2500.00        93.5029        6.32732       0.169813                 NaN            NaN            NaN            NaN
  1881.41        2500.00        92.9511        6.86686       0.182013                 NaN            NaN            NaN            NaN
  1878.21        2500.00        92.3989        7.40689       0.194224                 NaN            NaN            NaN            NaN
  1875.00        2500.00        91.8462        7.94740       0.206446                 NaN            NaN            NaN            NaN
  1871.79        2500.00        91.2929        8.48839       0.218680                 NaN            NaN            NaN            NaN
  1868.59        2500.00        90.7259        9.04435       0.229758                 NaN            NaN            NaN            NaN
  1865.38        2500.00        90.1583        9.60082       0.240847                 NaN            NaN            NaN            NaN
  1862.18        2500.00        89.5903        10.1578       0.251946                 NaN            NaN            NaN            NaN
  1858.97        2500.00        89.0217        10.7153       0.263055                 NaN            NaN            NaN            NaN
  1855.77        2500.00        88.4526        11.2732       0.274174                 NaN            NaN            NaN            NaN
  1852.56        2500.00        87.8830        11.8317       0.285304                 NaN            NaN            NaN            NaN
  1849.36        2500.00        87.3129        12.3906       0.296444                 NaN            NaN            NaN            NaN
  1846.15        2500.00        86.7423        12.9501       0.307593                 NaN            NaN            NaN            NaN
  1842.95        2500.00        86.1915        13.4907       0.317807                 NaN            NaN            NaN            NaN
  1839.74        2500.00        85.6401        14.0318       0.328030                 NaN            NaN            NaN            NaN
  1836.54        2500.00        85.0883        14.5734       0.338262                 NaN            NaN            NaN            NaN
  1833.33        2500.00        84.5361        15.1154       0.348503                 NaN            NaN            NaN            NaN
  1830.13        2500.00        83.9833        15.6579       0.358752                 NaN            NaN            NaN            NaN
  1826.92        2500.00        83.4301        16.2009       0.369011                 NaN            NaN            NaN            NaN
  1823.72        2500.00        82.8765        16.7442       0.379278                 NaN            NaN            NaN            NaN
  1820.51        2500.00        82.3224        17.2881       0.389553                 NaN            NaN            NaN            NaN
  1817.31        2500.00        81.7889        17.8122       0.398987                 NaN            NaN            NaN            NaN
  1814.10        2500.00        81.2549        18.3367       0.408427                 NaN            NaN            NaN            NaN
  1810.90        2500.00        80.7205        18.8616       0.417876                 NaN            NaN            NaN            NaN
  1807.69        2500.00        80.1857        19.3869       0.427332                 NaN            NaN            NaN            NaN
  1804.49        2500.00        79.6505        19.9127       0.436796                 NaN            NaN            NaN            NaN
  1801.28        2500.00        79.1149        20.4388       0.446267                 NaN            NaN            NaN            NaN
  1798.08        2500.00        78.5789        20.9654       0.455745                 NaN            NaN            NaN            NaN
  1794.87        2500.00        78.0425        21.4923       0.465231                 NaN            NaN            NaN            NaN
  1791.67        2500.00        77.5234        22.0025       0.474070                 NaN            NaN            NaN            NaN
  1788.46        2500.00        77.0040        22.5131       0.482916                 NaN            NaN            NaN            NaN
  1785.26        2500.00        76.4842        23.0241       0.491769                 NaN            NaN            NaN            NaN
  1782.05        2500.00        75.9640        23.5354       0.500628                 NaN            NaN            NaN            NaN
  1778.85        2500.00        75.4434        24.0471       0.509493                 NaN            NaN            NaN            NaN
  1775.64        2500.00        74.9225        24.5591       0.518365                 NaN            NaN            NaN            NaN
  1772.44        2500.00        74.4012        25.0715       0.527243                 NaN            NaN            NaN            NaN
  1769.23        2500.00        73.8796        25.5843       0.536128                 NaN            NaN            NaN            NaN
  1766.03        2500.00        73.3705        26.0852       0.544355                 NaN            NaN            NaN            NaN
  1762.82        2500.00        72.8610        26.5865       0.552588                 NaN            NaN            NaN            NaN
  1759.62        2500.00        72.3511        27.0880       0.560827                 NaN            NaN            NaN            NaN
  1756.41        2500.00        71.8410        27.5900       0.569071                 NaN            NaN            NaN            NaN
  1753.21        2500.00        71.3305        28.0922       0.577320                 NaN            NaN            NaN            NaN
  1750.00        2500.00        70.8197        28.5947       0.585575                 NaN            NaN            NaN            NaN
  1746.79        2500.00        70.3086        29.0976       0.593835                 NaN            NaN            NaN            NaN
  1743.59        2500.00        69.7971        29.6008       0.602101                 NaN            NaN            NaN            NaN
  1740.38        2500.00        69.3004        30.0898       0.609793                 NaN            NaN            NaN            NaN
  1737.18        2500.00        68.8034        30.5791       0.617490                 NaN            NaN            NaN            NaN
  1733.97        2500.00        68.3061        31.0687       0.625191                 NaN            NaN            NaN            NaN
  1730.77        2500.00        67.8085        31.5586       0.632897                 NaN            NaN            NaN            NaN
  1727.56        2500.00        67.3107        32.0487       0.640607                 NaN            NaN            NaN            NaN
  1724.36        2500.00        66.8126        32.5391       0.648321                 NaN            NaN            NaN            NaN
  1721.15        2500.00        66.3142        33.0298       0.656040                 NaN            NaN            NaN            NaN
  1717.95        2500.00        65.8155        33.5208       0.663763                 NaN            NaN            NaN            NaN
  1714.74        2500.00        65.3329        33.9960       0.671110                 NaN            NaN            NaN            NaN
  1711.54        2500.00        64.8500        34.4715       0.678461                 NaN            NaN            NaN            NaN
  1708.33        2500.00        64.3670        34.9472       0.685815                 NaN            NaN            NaN            NaN
  1705.13        2500.00        63.8836        35.4232       0.693173                 NaN            NaN            NaN            NaN
  1701.92        2500.00        63.4001        35.8994       0.700535                 NaN            NaN            NaN            NaN
  1698.72        2500.00        62.9163        36.3758       0.707900                 NaN            NaN            NaN            NaN
  1695.51        2500.00        62.4323        36.8524       0.715269                 NaN            NaN            NaN            NaN
  1692.31        2500.00        61.9481        37.3293       0.722641                 NaN            NaN            NaN            NaN
  1689.10        2500.00        61.4840        37.7863       0.729607                 NaN            NaN            NaN            NaN
  1685.90        2500.00        61.0198        38.2436       0.736575                 NaN            NaN            NaN            NaN
  1682.69        2500.00        60.5554        38.7010       0.743546                 NaN            NaN            NaN            NaN
  1679.49        2500.00        60.0908        39.1587       0.750521                 NaN            NaN            NaN            NaN
  1676.28        2500.00        59.6260        39.6165       0.757497                 NaN            NaN            NaN            NaN
  1673.08        2500.00        59.1611        40.0744       0.764477                 NaN            NaN            NaN            NaN
  1669.87        2500.00        58.6959        40.5326       0.771459                 NaN            NaN            NaN            NaN
  1666.67        2500.00        58.2306        40.9909       0.778444                 NaN            NaN            NaN            NaN
  1663.46        2500.00        57.7844        41.4305       0.785136                 NaN            NaN            NaN            NaN
  1660.26        2500.00        57.3380        41.8702       0.791831                 NaN            NaN            NaN            NaN
  1657.05        2500.00        56.8915        42.3100       0.798528                 NaN            NaN            NaN            NaN
  1653.85        2500.00        56.4448        42.7500       0.805227                 NaN            NaN            NaN            NaN
  1650.64        2500.00        55.8500        43.1554       0.810395       0.184151                 NaN            NaN            NaN
  1647.44        2500.00        54.3479        43.3964       0.806881        1.44881                 NaN            NaN            NaN
  1644.23        2500.00        52.9438        43.6208       0.803018        2.63235                 NaN            NaN            NaN
  1641.03        2500.00        51.5356        43.8458       0.799142        3.81945                 NaN            NaN            NaN
  1637.82        2500.00        50.3891        44.0252       0.794806        4.79093                 NaN            NaN            NaN
  1634.62        2500.00        49.2399        44.2048       0.790458        5.76481                 NaN            NaN            NaN
  1631.41        2500.00        48.0879        44.3849       0.786098        6.74110                 NaN            NaN            NaN
  1628.21        2500.00        46.9332        44.5652       0.781725        7.71981                 NaN            NaN            NaN
  1625.00        2500.00        45.7757        44.7460       0.777340        8.70094                 NaN            NaN            NaN
  1621.79        2500.00        44.6155        44.9271       0.772942        9.68449                 NaN            NaN            NaN
  1618.59        2500.00        43.4525        45.1085       0.768532        10.6705                 NaN            NaN            NaN
  1615.38        2500.00        42.2867        45.2903       0.764109        11.6589                 NaN            NaN            NaN
  1612.18        2500.00        41.4144        45.4195       0.758971        12.4070                 NaN            NaN            NaN
  1608.97        2500.00        40.5406        45.5490       0.753822        13.1566                 NaN            NaN            NaN
  1605.77        2500.00        39.6652        45.6786       0.748663        13.9076                 NaN            NaN            NaN
  1602.56        2500.00        38.7882        45.8084       0.743492        14.6600                 NaN            NaN            NaN
  1599.36        2500.00        37.9096        45.9383       0.738311        15.4138                 NaN            NaN            NaN
  1596.15        2500.00        37.0294        46.0684       0.733119        16.1690                 NaN            NaN            NaN
  1592.95        2500.00        36.1477        46.1988       0.727916        16.9256                 NaN            NaN            NaN
  1589.74        2500.00        35.2644        46.3292       0.722702        17.6836                 NaN            NaN            NaN
  1586.54        2500.00        34.5608        46.4260       0.716657        18.2965                 NaN            NaN            NaN
  1583.33        2500.00        33.8562        46.5229       0.710602        18.9103                 NaN            NaN            NaN
  1580.13        2500.00        33.1505        46.6200       0.704536        19.5250                 NaN            NaN            NaN
  1576.92        2500.00        32.4439        46.7171       0.698461        20.1406                 NaN            NaN            NaN
  1573.72        2500.00        31.7362        46.8143       0.692376        20.7572                 NaN            NaN            NaN
  1570.51        2500.00        31.0275        46.9116       0.686280        21.3747                 NaN            NaN            NaN
  1567.31        2500.00        30.3178        47.0089       0.680175        21.9931                 NaN            NaN            NaN
  1564.10        2500.00        29.6071        47.1064       0.674059        22.6124                 NaN            NaN            NaN
  1560.90        2500.00        29.0007        47.1831       0.666651        23.1495                 NaN            NaN            NaN
  1557.69        2500.00        28.3936        47.2599       0.659232        23.6873                 NaN            NaN            NaN
  1554.49        2500.00        27.7857        47.3367       0.651803        24.2258                 NaN            NaN            NaN
  1551.28        2500.00        27.1771        47.4136       0.644363        24.7650                 NaN            NaN            NaN
  1548.08        2500.00        26.5678        47.4905       0.636913        25.3048                 NaN            NaN            NaN
  1544.87        2500.00        25.9576        47.5675       0.629453        25.8454                 NaN            NaN            NaN
  1541.67        2500.00        25.3468        47.6446       0.621982        26.3867                 NaN            NaN            NaN
  1538.46        2500.00        24.7352        47.7217       0.614501        26.9286                 NaN            NaN            NaN
