|6.6.6
Archiving\03_Data\eq/QFM_m1.25/GRV/GRV_3.tab                              
           1
T(K)    
  0.000000000000000E+000
  0.000000000000000E+000
           0
           9
T(K)           P(bar)         melt(TH)       pxmn           Sp(TH)         O(HP)          Opx(TH)        Cpx(TH)        Cpx(TH)       
  2000.00        2500.00        99.3209       0.679069                 NaN            NaN            NaN            NaN            NaN
  1996.79        2500.00        99.3209       0.679141                 NaN            NaN            NaN            NaN            NaN
  1993.59        2500.00        99.3208       0.679214                 NaN            NaN            NaN            NaN            NaN
  1990.38        2500.00        99.3207       0.679286                 NaN            NaN            NaN            NaN            NaN
  1987.18        2500.00        99.3206       0.679359                 NaN            NaN            NaN            NaN            NaN
  1983.97        2500.00        99.3206       0.679431                 NaN            NaN            NaN            NaN            NaN
  1980.77        2500.00        99.3205       0.679504                 NaN            NaN            NaN            NaN            NaN
  1977.56        2500.00        99.3204       0.679577                 NaN            NaN            NaN            NaN            NaN
  1974.36        2500.00        99.3204       0.679649                 NaN            NaN            NaN            NaN            NaN
  1971.15        2500.00        99.3203       0.679722                 NaN            NaN            NaN            NaN            NaN
  1967.95        2500.00        99.3202       0.679795                 NaN            NaN            NaN            NaN            NaN
  1964.74        2500.00        99.3201       0.679867                 NaN            NaN            NaN            NaN            NaN
  1961.54        2500.00        99.3201       0.679940                 NaN            NaN            NaN            NaN            NaN
  1958.33        2500.00        99.3200       0.680013                 NaN            NaN            NaN            NaN            NaN
  1955.13        2500.00        99.3199       0.680086                 NaN            NaN            NaN            NaN            NaN
  1951.92        2500.00        99.3198       0.680159                 NaN            NaN            NaN            NaN            NaN
  1948.72        2500.00        99.3198       0.680232                 NaN            NaN            NaN            NaN            NaN
  1945.51        2500.00        99.3197       0.680305                 NaN            NaN            NaN            NaN            NaN
  1942.31        2500.00        99.3196       0.680378                 NaN            NaN            NaN            NaN            NaN
  1939.10        2500.00        99.3195       0.680451                 NaN            NaN            NaN            NaN            NaN
  1935.90        2500.00        99.3195       0.680524                 NaN            NaN            NaN            NaN            NaN
  1932.69        2500.00        99.3194       0.680597                 NaN            NaN            NaN            NaN            NaN
  1929.49        2500.00        99.3193       0.680670                 NaN            NaN            NaN            NaN            NaN
  1926.28        2500.00        99.3193       0.680744                 NaN            NaN            NaN            NaN            NaN
  1923.08        2500.00        99.3192       0.680817                 NaN            NaN            NaN            NaN            NaN
  1919.87        2500.00        99.3191       0.680890                 NaN            NaN            NaN            NaN            NaN
  1916.67        2500.00        99.3190       0.680963                 NaN            NaN            NaN            NaN            NaN
  1913.46        2500.00        99.3190       0.681037                 NaN            NaN            NaN            NaN            NaN
  1910.26        2500.00        99.3189       0.681110                 NaN            NaN            NaN            NaN            NaN
  1907.05        2500.00        99.3188       0.681183                 NaN            NaN            NaN            NaN            NaN
  1903.85        2500.00        99.3187       0.681257                 NaN            NaN            NaN            NaN            NaN
  1900.64        2500.00        99.3187       0.681330                 NaN            NaN            NaN            NaN            NaN
  1897.44        2500.00        99.3186       0.681404                 NaN            NaN            NaN            NaN            NaN
  1894.23        2500.00        99.3185       0.681477                 NaN            NaN            NaN            NaN            NaN
  1891.03        2500.00        99.3184       0.681551                 NaN            NaN            NaN            NaN            NaN
  1887.82        2500.00        99.3184       0.681624                 NaN            NaN            NaN            NaN            NaN
  1884.62        2500.00        99.3183       0.681698                 NaN            NaN            NaN            NaN            NaN
  1881.41        2500.00        99.3182       0.681772                 NaN            NaN            NaN            NaN            NaN
  1878.21        2500.00        99.3182       0.681845                 NaN            NaN            NaN            NaN            NaN
  1875.00        2500.00        99.3181       0.681919                 NaN            NaN            NaN            NaN            NaN
  1871.79        2500.00        99.3180       0.681993                 NaN            NaN            NaN            NaN            NaN
  1868.59        2500.00        99.3179       0.682067                 NaN            NaN            NaN            NaN            NaN
  1865.38        2500.00        99.3179       0.682140                 NaN            NaN            NaN            NaN            NaN
  1862.18        2500.00        99.3178       0.682214                 NaN            NaN            NaN            NaN            NaN
  1858.97        2500.00        99.3177       0.682288                 NaN            NaN            NaN            NaN            NaN
  1855.77        2500.00        99.3176       0.682362                 NaN            NaN            NaN            NaN            NaN
  1852.56        2500.00        99.3176       0.682436                 NaN            NaN            NaN            NaN            NaN
  1849.36        2500.00        99.3175       0.682510                 NaN            NaN            NaN            NaN            NaN
  1846.15        2500.00        99.3174       0.682584                 NaN            NaN            NaN            NaN            NaN
  1842.95        2500.00        99.3173       0.682658                 NaN            NaN            NaN            NaN            NaN
  1839.74        2500.00        99.3173       0.682732                 NaN            NaN            NaN            NaN            NaN
  1836.54        2500.00        99.3172       0.682806                 NaN            NaN            NaN            NaN            NaN
  1833.33        2500.00        99.3171       0.682880                 NaN            NaN            NaN            NaN            NaN
  1830.13        2500.00        99.3170       0.682954                 NaN            NaN            NaN            NaN            NaN
  1826.92        2500.00        99.3092       0.683039       0.781071E-002            NaN            NaN            NaN            NaN
  1823.72        2500.00        99.2949       0.683132       0.219193E-001            NaN            NaN            NaN            NaN
  1820.51        2500.00        99.2807       0.683225       0.360319E-001            NaN            NaN            NaN            NaN
  1817.31        2500.00        99.2671       0.683316       0.495911E-001            NaN            NaN            NaN            NaN
  1814.10        2500.00        99.2534       0.683408       0.631540E-001            NaN            NaN            NaN            NaN
  1810.90        2500.00        99.2398       0.683500       0.767207E-001            NaN            NaN            NaN            NaN
  1807.69        2500.00        99.2261       0.683592       0.902910E-001            NaN            NaN            NaN            NaN
  1804.49        2500.00        99.2125       0.683684       0.103865                 NaN            NaN            NaN            NaN
  1801.28        2500.00        99.1988       0.683776       0.117443                 NaN            NaN            NaN            NaN
  1798.08        2500.00        99.1851       0.683868       0.131024                 NaN            NaN            NaN            NaN
  1794.87        2500.00        99.1714       0.683960       0.144610                 NaN            NaN            NaN            NaN
  1791.67        2500.00        99.1587       0.684051       0.157289                 NaN            NaN            NaN            NaN
  1788.46        2500.00        99.1459       0.684141       0.169971                 NaN            NaN            NaN            NaN
  1785.26        2500.00        99.1331       0.684232       0.182658                 NaN            NaN            NaN            NaN
  1782.05        2500.00        99.1203       0.684322       0.195347                 NaN            NaN            NaN            NaN
  1778.85        2500.00        99.1075       0.684413       0.208040                 NaN            NaN            NaN            NaN
  1775.64        2500.00        99.0948       0.684503       0.220736                 NaN            NaN            NaN            NaN
  1772.44        2500.00        99.0820       0.684594       0.233436                 NaN            NaN            NaN            NaN
  1769.23        2500.00        99.0692       0.684685       0.246139                 NaN            NaN            NaN            NaN
  1766.03        2500.00        99.0569       0.684774       0.258375                 NaN            NaN            NaN            NaN
  1762.82        2500.00        98.7869       0.684958       0.270315       0.257853                 NaN            NaN            NaN
  1759.62        2500.00        98.0360       0.685315       0.281864       0.996790                 NaN            NaN            NaN
  1756.41        2500.00        97.2844       0.685671       0.293424        1.73647                 NaN            NaN            NaN
  1753.21        2500.00        96.5278       0.686026       0.304658        2.48149                 NaN            NaN            NaN
  1750.00        2500.00        95.7705       0.686380       0.315902        3.22726                 NaN            NaN            NaN
  1746.79        2500.00        95.0124       0.686731       0.327156        3.97375                 NaN            NaN            NaN
  1743.59        2500.00        94.2535       0.687081       0.338421        4.72097                 NaN            NaN            NaN
  1740.38        2500.00        93.4881       0.687433       0.349034        5.47546                 NaN            NaN            NaN
  1737.18        2500.00        92.7219       0.687782       0.359657        6.23068                 NaN            NaN            NaN
  1733.97        2500.00        91.9550       0.688129       0.370290        6.98662                 NaN            NaN            NaN
  1730.77        2500.00        91.1873       0.688474       0.380932        7.74327                 NaN            NaN            NaN
  1727.56        2500.00        90.4190       0.688817       0.391584        8.50063                 NaN            NaN            NaN
  1724.36        2500.00        89.6499       0.689158       0.402244        9.25868                 NaN            NaN            NaN
  1721.15        2500.00        88.8802       0.689497       0.412914        10.0174                 NaN            NaN            NaN
  1717.95        2500.00        88.1097       0.689833       0.423593        10.7769                 NaN            NaN            NaN
  1714.74        2500.00        87.3466       0.690165       0.433382        11.5298                 NaN            NaN            NaN
  1711.54        2500.00        86.5829       0.690496       0.443178        12.2835                 NaN            NaN            NaN
  1708.33        2500.00        85.8184       0.690823       0.452983        13.0377                 NaN            NaN            NaN
  1705.13        2500.00        85.0534       0.691149       0.462795        13.7927                 NaN            NaN            NaN
  1701.92        2500.00        84.2877       0.691472       0.472614        14.5482                 NaN            NaN            NaN
  1698.72        2500.00        83.5214       0.691793       0.482441        15.3044                 NaN            NaN            NaN
  1695.51        2500.00        82.7544       0.692111       0.492276        16.0612                 NaN            NaN            NaN
  1692.31        2500.00        81.9869       0.692427       0.502117        16.8186                 NaN            NaN            NaN
  1689.10        2500.00        81.2397       0.692733       0.511352        17.5563                 NaN            NaN            NaN
  1685.90        2500.00        80.4919       0.693037       0.520593        18.2945                 NaN            NaN            NaN
  1682.69        2500.00        79.7436       0.693338       0.529840        19.0332                 NaN            NaN            NaN
  1679.49        2500.00        78.9947       0.693637       0.539093        19.7725                 NaN            NaN            NaN
  1676.28        2500.00        78.2597       0.693930       0.547942        20.4985                 NaN            NaN            NaN
  1673.08        2500.00        77.5241       0.694221       0.556795        21.2249                 NaN            NaN            NaN
  1669.87        2500.00        76.7978       0.694505       0.565656        21.9420                 NaN            NaN            NaN
  1666.67        2500.00        75.0795       0.695729       0.573877        22.3819        1.26907                 NaN            NaN
  1663.46        2500.00        73.2272       0.697175       0.579113        22.6187        2.87789                 NaN            NaN
  1660.26        2500.00        71.3673       0.698624       0.584369        22.8564        4.49335                 NaN            NaN
  1657.05        2500.00        69.4999       0.700078       0.589645        23.0950        6.11546                 NaN            NaN
  1653.85        2500.00        67.6248       0.701535       0.594942        23.3345        7.74426                 NaN            NaN
  1650.64        2500.00        65.7420       0.702996       0.600258        23.5749        9.37977                 NaN            NaN
  1647.44        2500.00        63.8516       0.704461       0.605595        23.8163        11.0220                 NaN            NaN
  1644.23        2500.00        61.9535       0.705930       0.610952        24.0586        12.6710                 NaN            NaN
  1641.03        2500.00        60.0476       0.707402       0.616330        24.3018        14.3269                 NaN            NaN
  1637.82        2500.00        58.6443       0.708525       0.617453        24.4601        15.5697                 NaN            NaN
  1634.62        2500.00        57.2367       0.709649       0.618579        24.6188        16.8164                 NaN            NaN
  1631.41        2500.00        55.8247       0.710775       0.619707        24.7779        18.0669                 NaN            NaN
  1628.21        2500.00        54.4084       0.711904       0.620837        24.9375        19.3214                 NaN            NaN
  1625.00        2500.00        52.9878       0.713034       0.621970        25.0975        20.5797                 NaN            NaN
  1621.79        2500.00        51.5628       0.714166       0.623104        25.2580        21.8420                 NaN            NaN
  1618.59        2500.00        50.1334       0.715301       0.624241        25.4189        23.1082                 NaN            NaN
  1615.38        2500.00        48.6996       0.716437       0.625380        25.5803        24.3783                 NaN            NaN
  1612.18        2500.00        47.5439       0.717384       0.622650        25.6943        25.4217                 NaN            NaN
  1608.97        2500.00        46.3854       0.718332       0.619911        25.8085        26.4678                 NaN            NaN
  1605.77        2500.00        45.2239       0.719282       0.617164        25.9231        27.5166                 NaN            NaN
  1602.56        2500.00        44.0594       0.720232       0.614409        26.0378        28.5681                 NaN            NaN
  1599.36        2500.00        42.8920       0.721185       0.611645        26.1528        29.6223                 NaN            NaN
  1596.15        2500.00        41.7217       0.722138       0.608874        26.2681        30.6792                 NaN            NaN
  1592.95        2500.00        40.5484       0.723093       0.606093        26.3837        31.7387                 NaN            NaN
  1589.74        2500.00        39.3722       0.724049       0.603305        26.4995        32.8010                 NaN            NaN
  1586.54        2500.00        38.3224       0.724925       0.595521        26.5979        33.7592                 NaN            NaN
  1583.33        2500.00        37.2703       0.725803       0.587718        26.6966        34.7196                 NaN            NaN
  1580.13        2500.00        36.2158       0.726682       0.579895        26.7955        35.6822                 NaN            NaN
  1576.92        2500.00        35.1588       0.727563       0.572052        26.8946        36.6470                 NaN            NaN
  1573.72        2500.00        34.0995       0.728444       0.564190        26.9938        37.6141                 NaN            NaN
  1570.51        2500.00        33.0377       0.729327       0.556308        27.0933        38.5834                 NaN            NaN
  1567.31        2500.00        31.9735       0.730210       0.548406        27.1930        39.5549                 NaN            NaN
  1564.10        2500.00        30.9068       0.731095       0.540484        27.2929        40.5287                 NaN            NaN
  1560.90        2500.00        29.8668       0.731968       0.528102        27.3933        41.4770       0.282335E-002            NaN
  1557.69        2500.00        28.4998       0.733118       0.529402        27.5076        40.8265        1.90354                 NaN
  1554.49        2500.00        27.1170       0.734296       0.529585        27.6290        40.2348        3.75529                 NaN
  1551.28        2500.00        25.7299       0.735477       0.529768        27.7507        39.6412        5.61294                 NaN
  1548.08        2500.00        24.3207       0.736694       0.527237        27.8843        39.2277        7.30333                 NaN
  1544.87        2500.00        22.7858       0.738050       0.511174        28.0620        39.8111        7.11256       0.979325     
  1541.67        2500.00        22.7845       0.738073       0.511193        28.0625        39.8117        7.11268       0.979339     
  1538.46        2500.00        19.8713       0.740667       0.468630        28.4192        41.5325        3.76735        5.20030     
