|6.6.6
Archiving\03_Data\frac/QFM_m3/Y98/Y98_6.tab                               
           1
T(K)    
  0.000000000000000E+000
  0.000000000000000E+000
           0
           3
T(K)           P(bar)         rho,kg/m3     
  2000.00        2500.00        3611.47     
  1997.49        2500.00        3611.84     
  1994.99        2500.00        3612.22     
  1992.48        2500.00        3612.59     
  1989.97        2500.00        3612.97     
  1987.47        2500.00        3613.34     
  1984.96        2500.00        3613.72     
  1982.46        2500.00        3614.09     
  1979.95        2500.00        3614.46     
  1977.44        2500.00        3614.84     
  1974.94        2500.00        3615.21     
  1972.43        2500.00        3615.58     
  1969.92        2500.00        3615.96     
  1967.42        2500.00        3616.33     
  1964.91        2500.00        3616.70     
  1962.41        2500.00        3617.08     
  1959.90        2500.00        3617.45     
  1957.39        2500.00        3617.82     
  1954.89        2500.00        3618.20     
  1952.38        2500.00        3618.57     
  1949.87        2500.00        3618.94     
  1947.37        2500.00        3619.31     
  1944.86        2500.00        3619.69     
  1942.36        2500.00        3620.06     
  1939.85        2500.00        3620.43     
  1937.34        2500.00        3620.80     
  1934.84        2500.00        3621.17     
  1932.33        2500.00        3621.54     
  1929.82        2500.00        3621.92     
  1927.32        2500.00        3622.29     
  1924.81        2500.00        3622.66     
  1922.31        2500.00        3623.03     
  1919.80        2500.00        3623.40     
  1917.29        2500.00        3623.77     
  1914.79        2500.00        3624.14     
  1912.28        2500.00        3624.51     
  1909.77        2500.00        3624.88     
  1907.27        2500.00        3625.25     
  1904.76        2500.00        3625.62     
  1902.26        2500.00        3625.99     
  1899.75        2500.00        3626.36     
  1897.24        2500.00        3626.73     
  1894.74        2500.00        3627.10     
  1892.23        2500.00        3627.47     
  1889.72        2500.00        3627.84     
  1887.22        2500.00        3628.21     
  1884.71        2500.00        3628.58     
  1882.21        2500.00        3628.95     
  1879.70        2500.00        3629.32     
  1877.19        2500.00        3629.69     
  1874.69        2500.00        3630.05     
  1872.18        2500.00        3630.42     
  1869.67        2500.00        3630.79     
  1867.17        2500.00        3631.16     
  1864.66        2500.00        3631.53     
  1862.16        2500.00        3631.90     
  1859.65        2500.00        3632.26     
  1857.14        2500.00        3632.63     
  1854.64        2500.00        3633.00     
  1852.13        2500.00        3633.37     
  1849.62        2500.00        3633.73     
  1847.12        2500.00        3634.10     
  1844.61        2500.00        3634.47     
  1842.11        2500.00        3634.84     
  1839.60        2500.00        3635.20     
  1837.09        2500.00        3635.57     
  1834.59        2500.00        3635.94     
  1832.08        2500.00        3636.30     
  1829.57        2500.00        3636.67     
  1827.07        2500.00        3637.03     
  1824.56        2500.00        3637.40     
  1822.06        2500.00        3637.77     
  1819.55        2500.00        3638.13     
  1817.04        2500.00        3638.50     
  1814.54        2500.00        3638.86     
  1812.03        2500.00        3639.23     
  1809.52        2500.00        3639.59     
  1807.02        2500.00        3639.96     
  1804.51        2500.00        3640.32     
  1802.01        2500.00        3640.69     
  1799.50        2500.00        3641.05     
  1796.99        2500.00        3641.42     
  1794.49        2500.00        3641.78     
  1791.98        2500.00        3642.15     
  1789.47        2500.00        3642.51     
  1786.97        2500.00        3642.88     
  1784.46        2500.00        3643.24     
  1781.95        2500.00        3643.61     
  1779.45        2500.00        3643.97     
  1776.94        2500.00        3644.33     
  1774.44        2500.00        3644.70     
  1771.93        2500.00        3645.06     
  1769.42        2500.00        3645.42     
  1766.92        2500.00        3645.79     
  1764.41        2500.00        3646.15     
  1761.90        2500.00        3646.51     
  1759.40        2500.00        3646.88     
  1756.89        2500.00        3647.24     
  1754.39        2500.00        3647.60     
  1751.88        2500.00        3647.96     
  1749.37        2500.00        3648.33     
  1746.87        2500.00        3648.69     
  1744.36        2500.00        3649.05     
  1741.85        2500.00        3649.41     
  1739.35        2500.00        3649.78     
  1736.84        2500.00        3650.14     
  1734.34        2500.00        3650.50     
  1731.83        2500.00        3650.86     
  1729.32        2500.00        3651.22     
  1726.82        2500.00        3651.58     
  1724.31        2500.00        3651.94     
  1721.80        2500.00        3652.31     
  1719.30        2500.00        3652.67     
  1716.79        2500.00        3653.03     
  1714.29        2500.00        3653.39     
  1711.78        2500.00        3653.75     
  1709.27        2500.00        3654.11     
  1706.77        2500.00        3654.47     
  1704.26        2500.00        3654.83     
  1701.75        2500.00        3657.02     
  1699.25        2500.00        3665.16     
  1696.74        2500.00        3665.43     
  1694.24        2500.00        3665.70     
  1691.73        2500.00        3665.99     
  1689.22        2500.00        3666.30     
  1686.72        2500.00        3666.57     
  1684.21        2500.00        3666.83     
  1681.70        2500.00        3667.13     
  1679.20        2500.00        3667.41     
  1676.69        2500.00        3667.69     
  1674.19        2500.00        3667.98     
  1671.68        2500.00        3668.27     
  1669.17        2500.00        3668.55     
  1666.67        2500.00        3668.85     
  1664.16        2500.00        3669.11     
  1661.65        2500.00        3619.59     
  1659.15        2500.00        4473.41     
  1656.64        2500.00        4473.33     
  1654.14        2500.00        4473.27     
  1651.63        2500.00        3379.60     
  1649.12        2500.00        3364.43     
  1646.62        2500.00        3365.95     
  1644.11        2500.00        3367.95     
  1641.60        2500.00        3369.60     
  1639.10        2500.00        3369.89     
  1636.59        2500.00        3373.18     
  1634.09        2500.00        3374.33     
  1631.58        2500.00        3375.47     
  1629.07        2500.00        3377.15     
  1626.57        2500.00        3379.61     
  1624.06        2500.00        3376.82     
  1621.55        2500.00        3275.47     
  1619.05        2500.00        3267.93     
  1616.54        2500.00        3269.43     
  1614.04        2500.00        3270.37     
  1611.53        2500.00        3271.74     
  1609.02        2500.00        3273.26     
  1606.52        2500.00        3273.66     
  1604.01        2500.00        3273.30     
  1601.50        2500.00        3277.21     
  1599.00        2500.00        3277.41     
  1596.49        2500.00        3278.61     
  1593.98        2500.00        3279.56     
  1591.48        2500.00        3280.92     
  1588.97        2500.00        3281.91     
  1586.47        2500.00        3282.61     
  1583.96        2500.00        3284.56     
  1581.45        2500.00        3285.18     
  1578.95        2500.00        3286.44     
  1576.44        2500.00        3288.03     
  1573.93        2500.00        3289.74     
  1571.43        2500.00        3290.22     
  1568.92        2500.00        3291.82     
  1566.42        2500.00        3291.77     
  1563.91        2500.00        3293.22     
  1561.40        2500.00        3294.04     
  1558.90        2500.00        3295.15     
  1556.39        2500.00        3296.15     
  1553.88        2500.00        3297.31     
  1551.38        2500.00        3298.66     
  1548.87        2500.00        3301.57     
  1546.37        2500.00        3290.79     
  1543.86        2500.00        3300.95     
  1541.35        2500.00        3302.11     
  1538.85        2500.00        3302.83     
  1536.34        2500.00        3304.84     
  1533.83        2500.00        3305.21     
  1531.33        2500.00        3295.91     
  1528.82        2500.00        3282.72     
  1526.32        2500.00        3282.35     
  1523.81        2500.00        3284.13     
  1521.30        2500.00        3286.10     
  1518.80        2500.00        3287.53     
  1516.29        2500.00        3288.94     
  1513.78        2500.00        3290.48     
  1511.28        2500.00        3291.97     
  1508.77        2500.00        3300.93     
  1506.27        2500.00        2908.73     
  1503.76        2500.00        3296.61     
  1501.25        2500.00        3298.04     
  1498.75        2500.00        3286.24     
  1496.24        2500.00        3281.67     
  1493.73        2500.00        3284.35     
  1491.23        2500.00        3286.46     
  1488.72        2500.00        3288.58     
  1486.22        2500.00        3290.93     
  1483.71        2500.00        3293.11     
  1481.20        2500.00        3295.46     
  1478.70        2500.00        3298.17     
  1476.19        2500.00        3300.69     
  1473.68        2500.00        3302.98     
  1471.18        2500.00        3305.33     
  1468.67        2500.00        3308.09     
  1466.17        2500.00        3310.11     
  1463.66        2500.00        3313.17     
  1461.15        2500.00        3315.51     
  1458.65        2500.00        3321.58     
  1456.14        2500.00        3326.63     
  1453.63        2500.00        3328.83     
  1451.13        2500.00        3331.09     
  1448.62        2500.00        3333.69     
  1446.12        2500.00        3336.60     
  1443.61        2500.00        3211.70     
  1441.10        2500.00        3156.14     
  1438.60        2500.00        3160.55     
  1436.09        2500.00        3164.33     
  1433.58        2500.00        3169.81     
  1431.08        2500.00        3173.95     
  1428.57        2500.00        3178.44     
  1426.07        2500.00        3182.88     
  1423.56        2500.00        3187.48     
  1421.05        2500.00        3191.90     
  1418.55        2500.00        3196.49     
  1416.04        2500.00        3200.63     
  1413.53        2500.00        3205.61     
  1411.03        2500.00        3209.99     
  1408.52        2500.00        3214.96     
  1406.02        2500.00        3216.49     
  1403.51        2500.00        3224.33     
  1401.00        2500.00        3228.67     
  1398.50        2500.00        3232.93     
  1395.99        2500.00        3237.21     
  1393.48        2500.00        3241.28     
  1390.98        2500.00        3245.61     
  1388.47        2500.00        3249.56     
  1385.96        2500.00        3253.78     
  1383.46        2500.00        3257.94     
  1380.95        2500.00        3251.62     
  1378.45        2500.00        3268.47     
  1375.94        2500.00        3270.53     
  1373.43        2500.00        3274.38     
  1370.93        2500.00        3278.33     
  1368.42        2500.00        3281.96     
  1365.91        2500.00        3285.72     
  1363.41        2500.00        3289.46     
  1360.90        2500.00        3292.65     
  1358.40        2500.00        3296.77     
  1355.89        2500.00        3299.88     
  1353.38        2500.00        3303.31     
  1350.88        2500.00        3349.45     
  1348.37        2500.00        3351.76     
  1345.86        2500.00        3353.81     
  1343.36        2500.00        3357.09     
  1340.85        2500.00        3357.99     
  1338.35        2500.00        3360.03     
  1335.84        2500.00        3361.35     
  1333.33        2500.00        3363.34     
  1330.83        2500.00        3365.25     
  1328.32        2500.00        3366.66     
  1325.81        2500.00        3368.42     
  1323.31        2500.00        3369.42     
  1320.80        2500.00        3370.23     
  1318.30        2500.00        3371.50     
  1315.79        2500.00        3372.38     
  1313.28        2500.00        3372.94     
  1310.78        2500.00        3374.22     
  1308.27        2500.00        3374.65     
  1305.76        2500.00        3375.16     
  1303.26        2500.00        3375.44     
  1300.75        2500.00        3375.88     
  1298.25        2500.00        2930.86     
  1295.74        2500.00        2883.06     
  1293.23        2500.00        2890.86     
  1290.73        2500.00        2897.39     
  1288.22        2500.00        2887.79     
  1285.71        2500.00        4171.13     
  1283.21        2500.00        3048.70     
  1280.70        2500.00        2910.59     
  1278.20        2500.00        2924.48     
  1275.69        2500.00        2906.05     
  1273.18        2500.00        4267.68     
  1270.68        2500.00        2995.31     
  1268.17        2500.00        2830.68     
  1265.66        2500.00        2969.02     
  1263.16        2500.00        2882.35     
  1260.65        2500.00        2983.99     
  1258.15        2500.00        2927.07     
  1255.64        2500.00        2909.39     
  1253.13        2500.00        2929.79     
  1250.63        2500.00        2939.67     
  1248.12        2500.00        2754.07     
  1245.61        2500.00        3208.74     
  1243.11        2500.00        2720.39     
  1240.60        2500.00        2757.82     
  1238.10        2500.00        2735.56     
  1235.59        2500.00        2721.96     
  1233.08        2500.00        2629.27     
  1230.58        2500.00        2717.24     
  1228.07        2500.00        2692.45     
  1225.56        2500.00        2692.57     
  1223.06        2500.00        2692.97     
  1220.55        2500.00        2692.59     
  1218.05        2500.00        2692.72     
  1215.54        2500.00        2692.85     
  1213.03        2500.00        2692.98     
  1210.53        2500.00        2693.11     
  1208.02        2500.00        2693.24     
  1205.51        2500.00        2693.37     
  1203.01        2500.00        2693.50     
  1200.50        2500.00        2693.63     
  1197.99        2500.00        2693.76     
  1195.49        2500.00        2693.89     
  1192.98        2500.00        2694.02     
  1190.48        2500.00        2694.15     
  1187.97        2500.00        2694.28     
  1185.46        2500.00        2694.41     
  1182.96        2500.00        2694.54     
  1180.45        2500.00        2694.67     
  1177.94        2500.00        2694.80     
  1175.44        2500.00        2694.93     
  1172.93        2500.00        2695.06     
  1170.43        2500.00        2695.19     
  1167.92        2500.00        2695.32     
  1165.41        2500.00        2695.45     
  1162.91        2500.00        2695.58     
  1160.40        2500.00        2695.71     
  1157.89        2500.00        2695.84     
  1155.39        2500.00        2695.97     
  1152.88        2500.00        2696.09     
  1150.38        2500.00        2696.22     
  1147.87        2500.00        2696.35     
  1145.36        2500.00        2696.48     
  1142.86        2500.00        2696.61     
  1140.35        2500.00        2696.74     
  1137.84        2500.00        2696.87     
  1135.34        2500.00        2697.00     
  1132.83        2500.00        2697.13     
  1130.33        2500.00        2697.26     
  1127.82        2500.00        2697.38     
  1125.31        2500.00        2697.51     
  1122.81        2500.00        2697.64     
  1120.30        2500.00        2697.77     
  1117.79        2500.00        2697.90     
  1115.29        2500.00        2698.02     
  1112.78        2500.00        2698.15     
  1110.28        2500.00        2698.28     
  1107.77        2500.00        2698.41     
  1105.26        2500.00        2698.53     
  1102.76        2500.00        2698.66     
  1100.25        2500.00        2698.79     
  1097.74        2500.00        2698.91     
  1095.24        2500.00        2699.04     
  1092.73        2500.00        2699.17     
  1090.23        2500.00        2699.29     
  1087.72        2500.00        2699.42     
  1085.21        2500.00        2699.54     
  1082.71        2500.00        2699.67     
  1080.20        2500.00        2699.79     
  1077.69        2500.00        2699.92     
  1075.19        2500.00        2700.04     
  1072.68        2500.00        2700.17     
  1070.18        2500.00        2700.29     
  1067.67        2500.00        2700.41     
  1065.16        2500.00        2700.54     
  1062.66        2500.00        2700.66     
  1060.15        2500.00        2700.78     
  1057.64        2500.00        2700.91     
  1055.14        2500.00        2701.03     
  1052.63        2500.00        2701.15     
  1050.13        2500.00        2701.28     
  1047.62        2500.00        2701.40     
  1045.11        2500.00        2701.52     
  1042.61        2500.00        2701.64     
  1040.10        2500.00        2701.76     
  1037.59        2500.00        2701.88     
  1035.09        2500.00        2702.00     
  1032.58        2500.00        2702.12     
  1030.08        2500.00        2702.25     
  1027.57        2500.00        2702.37     
  1025.06        2500.00        2702.49     
  1022.56        2500.00        2702.61     
  1020.05        2500.00        2702.82     
  1017.54        2500.00        2702.90     
  1015.04        2500.00        2702.97     
  1012.53        2500.00        2703.15     
  1010.03        2500.00        2703.20     
  1007.52        2500.00        2703.32     
  1005.01        2500.00        2703.44     
  1002.51        2500.00        2703.56     
  1000.00        2500.00        2703.68     
