|6.6.6
Archiving\03_Data\eq/QFM_m3.75/GRV/GRV_3.tab                              
           1
T(K)    
  0.000000000000000E+000
  0.000000000000000E+000
           0
           9
T(K)           P(bar)         melt(TH)       pxmn           Sp(TH)         O(HP)          Opx(TH)        Cpx(TH)        Cpx(TH)       
  2000.00        2500.00        99.3193       0.680688                 NaN            NaN            NaN            NaN            NaN
  1996.79        2500.00        99.3192       0.680762                 NaN            NaN            NaN            NaN            NaN
  1993.59        2500.00        99.3192       0.680836                 NaN            NaN            NaN            NaN            NaN
  1990.38        2500.00        99.3191       0.680910                 NaN            NaN            NaN            NaN            NaN
  1987.18        2500.00        99.3190       0.680984                 NaN            NaN            NaN            NaN            NaN
  1983.97        2500.00        99.3189       0.681058                 NaN            NaN            NaN            NaN            NaN
  1980.77        2500.00        99.3189       0.681132                 NaN            NaN            NaN            NaN            NaN
  1977.56        2500.00        99.3188       0.681206                 NaN            NaN            NaN            NaN            NaN
  1974.36        2500.00        99.3187       0.681281                 NaN            NaN            NaN            NaN            NaN
  1971.15        2500.00        99.3186       0.681355                 NaN            NaN            NaN            NaN            NaN
  1967.95        2500.00        99.3186       0.681429                 NaN            NaN            NaN            NaN            NaN
  1964.74        2500.00        99.3185       0.681504                 NaN            NaN            NaN            NaN            NaN
  1961.54        2500.00        99.3184       0.681578                 NaN            NaN            NaN            NaN            NaN
  1958.33        2500.00        99.3183       0.681653                 NaN            NaN            NaN            NaN            NaN
  1955.13        2500.00        99.3183       0.681728                 NaN            NaN            NaN            NaN            NaN
  1951.92        2500.00        99.3182       0.681802                 NaN            NaN            NaN            NaN            NaN
  1948.72        2500.00        99.3181       0.681877                 NaN            NaN            NaN            NaN            NaN
  1945.51        2500.00        99.3180       0.681952                 NaN            NaN            NaN            NaN            NaN
  1942.31        2500.00        99.3180       0.682027                 NaN            NaN            NaN            NaN            NaN
  1939.10        2500.00        99.3179       0.682102                 NaN            NaN            NaN            NaN            NaN
  1935.90        2500.00        99.3178       0.682177                 NaN            NaN            NaN            NaN            NaN
  1932.69        2500.00        99.3177       0.682252                 NaN            NaN            NaN            NaN            NaN
  1929.49        2500.00        99.3177       0.682327                 NaN            NaN            NaN            NaN            NaN
  1926.28        2500.00        99.3176       0.682402                 NaN            NaN            NaN            NaN            NaN
  1923.08        2500.00        99.3175       0.682477                 NaN            NaN            NaN            NaN            NaN
  1919.87        2500.00        99.3174       0.682553                 NaN            NaN            NaN            NaN            NaN
  1916.67        2500.00        99.3174       0.682628                 NaN            NaN            NaN            NaN            NaN
  1913.46        2500.00        99.3173       0.682704                 NaN            NaN            NaN            NaN            NaN
  1910.26        2500.00        99.3172       0.682779                 NaN            NaN            NaN            NaN            NaN
  1907.05        2500.00        99.3171       0.682855                 NaN            NaN            NaN            NaN            NaN
  1903.85        2500.00        99.3171       0.682930                 NaN            NaN            NaN            NaN            NaN
  1900.64        2500.00        99.3170       0.683006                 NaN            NaN            NaN            NaN            NaN
  1897.44        2500.00        99.3169       0.683082                 NaN            NaN            NaN            NaN            NaN
  1894.23        2500.00        99.3168       0.683157                 NaN            NaN            NaN            NaN            NaN
  1891.03        2500.00        99.3168       0.683233                 NaN            NaN            NaN            NaN            NaN
  1887.82        2500.00        99.3167       0.683309                 NaN            NaN            NaN            NaN            NaN
  1884.62        2500.00        99.3166       0.683385                 NaN            NaN            NaN            NaN            NaN
  1881.41        2500.00        99.3165       0.683461                 NaN            NaN            NaN            NaN            NaN
  1878.21        2500.00        99.3165       0.683537                 NaN            NaN            NaN            NaN            NaN
  1875.00        2500.00        99.3164       0.683614                 NaN            NaN            NaN            NaN            NaN
  1871.79        2500.00        99.3163       0.683690                 NaN            NaN            NaN            NaN            NaN
  1868.59        2500.00        99.3162       0.683766                 NaN            NaN            NaN            NaN            NaN
  1865.38        2500.00        99.3162       0.683842                 NaN            NaN            NaN            NaN            NaN
  1862.18        2500.00        99.3161       0.683919                 NaN            NaN            NaN            NaN            NaN
  1858.97        2500.00        99.3160       0.683995                 NaN            NaN            NaN            NaN            NaN
  1855.77        2500.00        99.3159       0.684072                 NaN            NaN            NaN            NaN            NaN
  1852.56        2500.00        99.3159       0.684148                 NaN            NaN            NaN            NaN            NaN
  1849.36        2500.00        99.3158       0.684225                 NaN            NaN            NaN            NaN            NaN
  1846.15        2500.00        99.3157       0.684302                 NaN            NaN            NaN            NaN            NaN
  1842.95        2500.00        99.3156       0.684378                 NaN            NaN            NaN            NaN            NaN
  1839.74        2500.00        99.3155       0.684455                 NaN            NaN            NaN            NaN            NaN
  1836.54        2500.00        99.3155       0.684532                 NaN            NaN            NaN            NaN            NaN
  1833.33        2500.00        99.3150       0.684621       0.368330E-003            NaN            NaN            NaN            NaN
  1830.13        2500.00        99.3130       0.684697       0.225786E-002            NaN            NaN            NaN            NaN
  1826.92        2500.00        99.3111       0.684774       0.414784E-002            NaN            NaN            NaN            NaN
  1823.72        2500.00        99.3091       0.684851       0.603827E-002            NaN            NaN            NaN            NaN
  1820.51        2500.00        99.3071       0.684928       0.792915E-002            NaN            NaN            NaN            NaN
  1817.31        2500.00        99.2965       0.685020       0.185275E-001            NaN            NaN            NaN            NaN
  1814.10        2500.00        99.2858       0.685113       0.291288E-001            NaN            NaN            NaN            NaN
  1810.90        2500.00        99.2751       0.685205       0.397331E-001            NaN            NaN            NaN            NaN
  1807.69        2500.00        99.2644       0.685297       0.503404E-001            NaN            NaN            NaN            NaN
  1804.49        2500.00        99.2537       0.685389       0.609508E-001            NaN            NaN            NaN            NaN
  1801.28        2500.00        99.2430       0.685481       0.715641E-001            NaN            NaN            NaN            NaN
  1798.08        2500.00        99.2322       0.685574       0.821805E-001            NaN            NaN            NaN            NaN
  1794.87        2500.00        99.2215       0.685666       0.927998E-001            NaN            NaN            NaN            NaN
  1791.67        2500.00        99.2091       0.685761       0.105177                 NaN            NaN            NaN            NaN
  1788.46        2500.00        99.1966       0.685855       0.117558                 NaN            NaN            NaN            NaN
  1785.26        2500.00        99.1841       0.685950       0.129943                 NaN            NaN            NaN            NaN
  1782.05        2500.00        99.1716       0.686045       0.142331                 NaN            NaN            NaN            NaN
  1778.85        2500.00        99.1595       0.686139       0.154374                 NaN            NaN            NaN            NaN
  1775.64        2500.00        99.1473       0.686234       0.166421                 NaN            NaN            NaN            NaN
  1772.44        2500.00        98.7276       0.686471       0.178406       0.407530                 NaN            NaN            NaN
  1769.23        2500.00        97.9561       0.686830       0.190580        1.16650                 NaN            NaN            NaN
  1766.03        2500.00        97.1787       0.687189       0.202133        1.93194                 NaN            NaN            NaN
  1762.82        2500.00        96.4006       0.687545       0.213696        2.69816                 NaN            NaN            NaN
  1759.62        2500.00        95.6217       0.687900       0.225272        3.46513                 NaN            NaN            NaN
  1756.41        2500.00        94.8420       0.688253       0.236858        4.23285                 NaN            NaN            NaN
  1753.21        2500.00        94.0616       0.688604       0.248456        5.00132                 NaN            NaN            NaN
  1750.00        2500.00        93.2805       0.688953       0.260065        5.77053                 NaN            NaN            NaN
  1746.79        2500.00        92.4985       0.689300       0.271685        6.54047                 NaN            NaN            NaN
  1743.59        2500.00        91.7159       0.689645       0.283316        7.31114                 NaN            NaN            NaN
  1740.38        2500.00        90.9341       0.689987       0.294015        8.08186                 NaN            NaN            NaN
  1737.18        2500.00        90.1517       0.690327       0.304723        8.85328                 NaN            NaN            NaN
  1733.97        2500.00        89.3685       0.690664       0.315441        9.62541                 NaN            NaN            NaN
  1730.77        2500.00        88.5846       0.690999       0.326169        10.3982                 NaN            NaN            NaN
  1727.56        2500.00        87.8000       0.691332       0.336906        11.1717                 NaN            NaN            NaN
  1724.36        2500.00        87.0148       0.691662       0.347652        11.9459                 NaN            NaN            NaN
  1721.15        2500.00        86.2289       0.691990       0.358407        12.7207                 NaN            NaN            NaN
  1717.95        2500.00        85.4423       0.692316       0.369171        13.4963                 NaN            NaN            NaN
  1714.74        2500.00        84.6778       0.692631       0.379086        14.2504                 NaN            NaN            NaN
  1711.54        2500.00        83.9128       0.692943       0.389009        15.0052                 NaN            NaN            NaN
  1708.33        2500.00        83.1472       0.693253       0.398939        15.7606                 NaN            NaN            NaN
  1705.13        2500.00        82.3809       0.693560       0.408876        16.5166                 NaN            NaN            NaN
  1701.92        2500.00        81.6141       0.693865       0.418821        17.2732                 NaN            NaN            NaN
  1698.72        2500.00        80.8468       0.694167       0.428774        18.0303                 NaN            NaN            NaN
  1695.51        2500.00        80.0788       0.694467       0.438733        18.7880                 NaN            NaN            NaN
  1692.31        2500.00        79.3103       0.694764       0.448699        19.5462                 NaN            NaN            NaN
  1689.10        2500.00        78.5722       0.695048       0.458020        20.2747                 NaN            NaN            NaN
  1685.90        2500.00        77.8336       0.695330       0.467348        21.0037                 NaN            NaN            NaN
  1682.69        2500.00        77.0946       0.695609       0.476681        21.7331                 NaN            NaN            NaN
  1679.49        2500.00        76.3551       0.695886       0.486020        22.4630                 NaN            NaN            NaN
  1676.28        2500.00        75.6370       0.696152       0.495082        23.1718                 NaN            NaN            NaN
  1673.08        2500.00        74.9184       0.696415       0.504150        23.8810                 NaN            NaN            NaN
  1669.87        2500.00        73.1191       0.697715       0.511977        24.2602        1.41106                 NaN            NaN
  1666.67        2500.00        71.0293       0.699311       0.518618        24.5200        3.23273                 NaN            NaN
  1663.46        2500.00        69.3063       0.700652       0.522624        24.7182        4.75225                 NaN            NaN
  1660.26        2500.00        67.5768       0.701996       0.526644        24.9170        6.27753                 NaN            NaN
  1657.05        2500.00        65.8408       0.703343       0.530677        25.1166        7.80861                 NaN            NaN
  1653.85        2500.00        64.0983       0.704693       0.534725        25.3168        9.34549                 NaN            NaN
  1650.64        2500.00        62.3492       0.706047       0.538787        25.5177        10.8882                 NaN            NaN
  1647.44        2500.00        60.5936       0.707403       0.542864        25.7194        12.4368                 NaN            NaN
  1644.23        2500.00        58.8314       0.708763       0.546954        25.9217        13.9912                 NaN            NaN
  1641.03        2500.00        57.0625       0.710126       0.551058        26.1247        15.5515                 NaN            NaN
  1637.82        2500.00        55.7392       0.711182       0.550903        26.2519        16.7468                 NaN            NaN
  1634.62        2500.00        54.4121       0.712241       0.550746        26.3794        17.9454                 NaN            NaN
  1631.41        2500.00        53.0812       0.713301       0.550588        26.5073        19.1476                 NaN            NaN
  1628.21        2500.00        51.7464       0.714362       0.550428        26.6355        20.3533                 NaN            NaN
  1625.00        2500.00        50.4078       0.715426       0.550267        26.7640        21.5625                 NaN            NaN
  1621.79        2500.00        49.0654       0.716491       0.550104        26.8928        22.7752                 NaN            NaN
  1618.59        2500.00        47.7191       0.717558       0.549940        27.0220        23.9914                 NaN            NaN
  1615.38        2500.00        46.3689       0.718627       0.549774        27.1515        25.2112                 NaN            NaN
  1612.18        2500.00        45.2641       0.719531       0.545774        27.2410        26.2296                 NaN            NaN
  1608.97        2500.00        44.1566       0.720437       0.541763        27.3307        27.2505                 NaN            NaN
  1605.77        2500.00        43.0464       0.721343       0.537742        27.4207        28.2738                 NaN            NaN
  1602.56        2500.00        41.9336       0.722251       0.533710        27.5108        29.2997                 NaN            NaN
  1599.36        2500.00        40.8181       0.723160       0.529666        27.6010        30.3280                 NaN            NaN
  1596.15        2500.00        39.7000       0.724071       0.525612        27.6915        31.3588                 NaN            NaN
  1592.95        2500.00        38.5792       0.724982       0.521547        27.7821        32.3922                 NaN            NaN
  1589.74        2500.00        37.4556       0.725895       0.517471        27.8730        33.4280                 NaN            NaN
  1586.54        2500.00        36.4251       0.726749       0.509325        27.9523        34.3865                 NaN            NaN
  1583.33        2500.00        35.3923       0.727604       0.501160        28.0318        35.3471                 NaN            NaN
  1580.13        2500.00        34.3572       0.728461       0.492975        28.1114        36.3099                 NaN            NaN
  1576.92        2500.00        33.3199       0.729318       0.484770        28.1912        37.2749                 NaN            NaN
  1573.72        2500.00        32.2991       0.730167       0.474276        28.2712        38.2253                 NaN            NaN
  1570.51        2500.00        31.1486       0.731119       0.471244        28.3486        38.3342       0.966234                 NaN
  1567.31        2500.00        29.8595       0.732193       0.475109        28.4277        37.6566        2.84895                 NaN
  1564.10        2500.00        28.5669       0.733268       0.478985        28.5070        36.9768        4.73714                 NaN
  1560.90        2500.00        27.2534       0.734390       0.479851        28.6017        36.4904        6.44021                 NaN
  1557.69        2500.00        25.9361       0.735514       0.480719        28.6967        36.0025        8.14846                 NaN
  1554.49        2500.00        24.6150       0.736640       0.481590        28.7919        35.5129        9.86188                 NaN
  1551.28        2500.00        23.2901       0.737767       0.482465        28.8874        35.0218        11.5805                 NaN
  1548.08        2500.00        21.9966       0.738895       0.478864        28.9926        34.8129        12.9801                 NaN
  1544.87        2500.00        20.7537       0.739986       0.473920        29.0951        34.7072       0.108798E-002   14.2290     
  1541.67        2500.00        20.7526       0.740007       0.473938        29.0955        34.7077       0.108799E-002   14.2292     
  1538.46        2500.00        18.2129       0.742274       0.431323        29.3666        36.4089        11.9426        2.89544     
