|6.6.6
Archiving\03_Data\frac/QFM/Y98/Y98_6.tab                                  
           1
T(K)    
  0.000000000000000E+000
  0.000000000000000E+000
           0
           3
T(K)           P(bar)         rho,kg/m3     
  2000.00        2500.00        3577.05     
  1997.49        2500.00        2858.40     
  1994.99        2500.00        2858.90     
  1992.48        2500.00        2859.40     
  1989.97        2500.00        2859.90     
  1987.47        2500.00        2860.40     
  1984.96        2500.00        2860.90     
  1982.46        2500.00        2861.40     
  1979.95        2500.00        2861.90     
  1977.44        2500.00        2862.40     
  1974.94        2500.00        2862.90     
  1972.43        2500.00        2863.41     
  1969.92        2500.00        2863.91     
  1967.42        2500.00        2864.41     
  1964.91        2500.00        2864.91     
  1962.41        2500.00        2865.41     
  1959.90        2500.00        2865.91     
  1957.39        2500.00        2866.41     
  1954.89        2500.00        2866.92     
  1952.38        2500.00        2867.42     
  1949.87        2500.00        2867.92     
  1947.37        2500.00        2868.42     
  1944.86        2500.00        2868.92     
  1942.36        2500.00        2869.42     
  1939.85        2500.00        2869.93     
  1937.34        2500.00        2870.43     
  1934.84        2500.00        2870.93     
  1932.33        2500.00        2871.43     
  1929.82        2500.00        2871.93     
  1927.32        2500.00        2872.44     
  1924.81        2500.00        2872.94     
  1922.31        2500.00        2873.44     
  1919.80        2500.00        2873.94     
  1917.29        2500.00        2874.44     
  1914.79        2500.00        2874.94     
  1912.28        2500.00        2875.45     
  1909.77        2500.00        2875.95     
  1907.27        2500.00        2876.45     
  1904.76        2500.00        2876.95     
  1902.26        2500.00        2877.46     
  1899.75        2500.00        2877.96     
  1897.24        2500.00        2878.46     
  1894.74        2500.00        2878.96     
  1892.23        2500.00        2879.46     
  1889.72        2500.00        2879.97     
  1887.22        2500.00        2880.47     
  1884.71        2500.00        2880.97     
  1882.21        2500.00        2881.47     
  1879.70        2500.00        2881.98     
  1877.19        2500.00        2882.48     
  1874.69        2500.00        2882.98     
  1872.18        2500.00        2883.48     
  1869.67        2500.00        2883.99     
  1867.17        2500.00        2884.49     
  1864.66        2500.00        2884.99     
  1862.16        2500.00        2885.49     
  1859.65        2500.00        2886.00     
  1857.14        2500.00        2886.50     
  1854.64        2500.00        2887.00     
  1852.13        2500.00        2887.51     
  1849.62        2500.00        2888.01     
  1847.12        2500.00        2888.51     
  1844.61        2500.00        2889.01     
  1842.11        2500.00        2889.52     
  1839.60        2500.00        2890.02     
  1837.09        2500.00        2890.52     
  1834.59        2500.00        2891.03     
  1832.08        2500.00        2891.53     
  1829.57        2500.00        2892.03     
  1827.07        2500.00        2892.53     
  1824.56        2500.00        2893.04     
  1822.06        2500.00        2893.54     
  1819.55        2500.00        2894.04     
  1817.04        2500.00        2894.55     
  1814.54        2500.00        2895.05     
  1812.03        2500.00        2895.55     
  1809.52        2500.00        2896.05     
  1807.02        2500.00        2896.56     
  1804.51        2500.00        2897.06     
  1802.01        2500.00        2897.56     
  1799.50        2500.00        2898.07     
  1796.99        2500.00        2898.57     
  1794.49        2500.00        2899.07     
  1791.98        2500.00        2899.58     
  1789.47        2500.00        2900.08     
  1786.97        2500.00        2900.58     
  1784.46        2500.00        2901.09     
  1781.95        2500.00        2901.59     
  1779.45        2500.00        2902.09     
  1776.94        2500.00        2902.60     
  1774.44        2500.00        2903.10     
  1771.93        2500.00        2903.60     
  1769.42        2500.00        2904.11     
  1766.92        2500.00        2904.61     
  1764.41        2500.00        2905.11     
  1761.90        2500.00        2905.61     
  1759.40        2500.00        2906.12     
  1756.89        2500.00        2906.62     
  1754.39        2500.00        2907.12     
  1751.88        2500.00        2907.63     
  1749.37        2500.00        2908.13     
  1746.87        2500.00        2908.63     
  1744.36        2500.00        2909.14     
  1741.85        2500.00        2909.64     
  1739.35        2500.00        2910.14     
  1736.84        2500.00        2910.65     
  1734.34        2500.00        2911.15     
  1731.83        2500.00        2911.65     
  1729.32        2500.00        2912.16     
  1726.82        2500.00        2912.66     
  1724.31        2500.00        2913.16     
  1721.80        2500.00        2913.67     
  1719.30        2500.00        2914.17     
  1716.79        2500.00        2914.67     
  1714.29        2500.00        2915.18     
  1711.78        2500.00        4468.44     
  1709.27        2500.00        4468.13     
  1706.77        2500.00        4469.62     
  1704.26        2500.00        4469.32     
  1701.75        2500.00        4471.98     
  1699.25        2500.00        4470.72     
  1696.74        2500.00        4470.60     
  1694.24        2500.00        4472.04     
  1691.73        2500.00        4471.75     
  1689.22        2500.00        4472.16     
  1686.72        2500.00        4473.65     
  1684.21        2500.00        4473.79     
  1681.70        2500.00        4472.95     
  1679.20        2500.00        4473.82     
  1676.69        2500.00        4473.73     
  1674.19        2500.00        4473.54     
  1671.68        2500.00        4475.78     
  1669.17        2500.00        4475.99     
  1666.67        2500.00        4475.74     
  1664.16        2500.00        4476.23     
  1661.65        2500.00        2923.79     
  1659.15        2500.00        4477.37     
  1656.64        2500.00        4479.21     
  1654.14        2500.00        4479.03     
  1651.63        2500.00        4478.83     
  1649.12        2500.00        4478.54     
  1646.62        2500.00        4478.73     
  1644.11        2500.00        4478.30     
  1641.60        2500.00        4480.53     
  1639.10        2500.00        4480.41     
  1636.59        2500.00        4480.78     
  1634.09        2500.00        4481.64     
  1631.58        2500.00        4481.43     
  1629.07        2500.00        4482.07     
  1626.57        2500.00        3374.28     
  1624.06        2500.00        3346.90     
  1621.55        2500.00        3340.22     
  1619.05        2500.00        3259.68     
  1616.54        2500.00        3253.51     
  1614.04        2500.00        3254.94     
  1611.53        2500.00        3255.96     
  1609.02        2500.00        3257.14     
  1606.52        2500.00        3258.47     
  1604.01        2500.00        3259.56     
  1601.50        2500.00        3261.13     
  1599.00        2500.00        3262.33     
  1596.49        2500.00        3263.70     
  1593.98        2500.00        3264.16     
  1591.48        2500.00        3266.44     
  1588.97        2500.00        3267.31     
  1586.47        2500.00        3268.21     
  1583.96        2500.00        3269.42     
  1581.45        2500.00        3270.70     
  1578.95        2500.00        3272.38     
  1576.44        2500.00        3273.44     
  1573.93        2500.00        3274.12     
  1571.43        2500.00        3275.36     
  1568.92        2500.00        3276.42     
  1566.42        2500.00        3278.13     
  1563.91        2500.00        3278.86     
  1561.40        2500.00        3280.65     
  1558.90        2500.00        3281.38     
  1556.39        2500.00        3282.88     
  1553.88        2500.00        3283.59     
  1551.38        2500.00        3284.38     
  1548.87        2500.00        3286.01     
  1546.37        2500.00        3287.64     
  1543.86        2500.00        3284.60     
  1541.35        2500.00        3289.40     
  1538.85        2500.00        3290.11     
  1536.34        2500.00        3291.50     
  1533.83        2500.00        3293.07     
  1531.33        2500.00        3293.60     
  1528.82        2500.00        3294.16     
  1526.32        2500.00        3296.19     
  1523.81        2500.00        3297.29     
  1521.30        2500.00        3298.13     
  1518.80        2500.00        3298.68     
  1516.29        2500.00        3300.21     
  1513.78        2500.00        3301.80     
  1511.28        2500.00        3301.64     
  1508.77        2500.00        3302.14     
  1506.27        2500.00        3303.63     
  1503.76        2500.00        3304.53     
  1501.25        2500.00        3305.49     
  1498.75        2500.00        3306.32     
  1496.24        2500.00        3293.45     
  1493.73        2500.00        3284.09     
  1491.23        2500.00        3286.38     
  1488.72        2500.00        3288.81     
  1486.22        2500.00        3290.85     
  1483.71        2500.00        3293.70     
  1481.20        2500.00        3296.19     
  1478.70        2500.00        3298.15     
  1476.19        2500.00        3298.53     
  1473.68        2500.00        3297.70     
  1471.18        2500.00        3300.39     
  1468.67        2500.00        3302.86     
  1466.17        2500.00        3305.27     
  1463.66        2500.00        3307.60     
  1461.15        2500.00        3310.25     
  1458.65        2500.00        3312.57     
  1456.14        2500.00        3314.89     
  1453.63        2500.00        3317.47     
  1451.13        2500.00        3320.22     
  1448.62        2500.00        3322.37     
  1446.12        2500.00        3324.87     
  1443.61        2500.00        3327.43     
  1441.10        2500.00        3329.88     
  1438.60        2500.00        3332.82     
  1436.09        2500.00        3334.95     
  1433.58        2500.00        3337.65     
  1431.08        2500.00        3340.53     
  1428.57        2500.00        3342.44     
  1426.07        2500.00        3230.86     
  1423.56        2500.00        3174.51     
  1421.05        2500.00        3179.02     
  1418.55        2500.00        3183.87     
  1416.04        2500.00        3188.79     
  1413.53        2500.00        3193.21     
  1411.03        2500.00        3198.19     
  1408.52        2500.00        3203.40     
  1406.02        2500.00        3208.06     
  1403.51        2500.00        3212.99     
  1401.00        2500.00        3218.16     
  1398.50        2500.00        3223.36     
  1395.99        2500.00        3228.21     
  1393.48        2500.00        3233.43     
  1390.98        2500.00        3238.71     
  1388.47        2500.00        3325.94     
  1385.96        2500.00        3379.57     
  1383.46        2500.00        3385.98     
  1380.95        2500.00        3389.40     
  1378.45        2500.00        3391.84     
  1375.94        2500.00        3393.72     
  1373.43        2500.00        3395.29     
  1370.93        2500.00        3396.65     
  1368.42        2500.00        3397.90     
  1365.91        2500.00        3398.93     
  1363.41        2500.00        3400.07     
  1360.90        2500.00        3401.14     
  1358.40        2500.00        3401.87     
  1355.89        2500.00        3402.65     
  1353.38        2500.00        3403.30     
  1350.88        2500.00        3403.96     
  1348.37        2500.00        3404.24     
  1345.86        2500.00        3405.08     
  1343.36        2500.00        3405.40     
  1340.85        2500.00        3405.78     
  1338.35        2500.00        3406.05     
  1335.84        2500.00        3406.21     
  1333.33        2500.00        3406.31     
  1330.83        2500.00        3406.34     
  1328.32        2500.00        3406.41     
  1325.81        2500.00        3406.28     
  1323.31        2500.00        3406.11     
  1320.80        2500.00        3406.03     
  1318.30        2500.00        3405.72     
  1315.79        2500.00        3405.37     
  1313.28        2500.00        3404.84     
  1310.78        2500.00        3404.50     
  1308.27        2500.00        3403.94     
  1305.76        2500.00        3403.24     
  1303.26        2500.00        3402.54     
  1300.75        2500.00        3401.86     
  1298.25        2500.00        3400.98     
  1295.74        2500.00        3400.07     
  1293.23        2500.00        3399.15     
  1290.73        2500.00        2878.46     
  1288.22        2500.00        2880.86     
  1285.71        2500.00        2883.75     
  1283.21        2500.00        2886.35     
  1280.70        2500.00        2887.79     
  1278.20        2500.00        2892.30     
  1275.69        2500.00        2892.77     
  1273.18        2500.00        2894.46     
  1270.68        2500.00        2896.91     
  1268.17        2500.00        2897.47     
  1265.66        2500.00        2897.53     
  1263.16        2500.00        2893.22     
  1260.65        2500.00        2900.71     
  1258.15        2500.00        2897.41     
  1255.64        2500.00        2884.79     
  1253.13        2500.00        2884.61     
  1250.63        2500.00        2867.68     
  1248.12        2500.00        2768.35     
  1245.61        2500.00        2727.44     
  1243.11        2500.00        2733.61     
  1240.60        2500.00        2729.01     
  1238.10        2500.00        2716.71     
  1235.59        2500.00        2737.69     
  1233.08        2500.00        2716.70     
  1230.58        2500.00        2713.94     
  1228.07        2500.00        2699.11     
  1225.56        2500.00        2678.13     
  1223.06        2500.00        2669.99     
  1220.55        2500.00        2670.18     
  1218.05        2500.00        2670.28     
  1215.54        2500.00        2670.43     
  1213.03        2500.00        2670.58     
  1210.53        2500.00        2670.73     
  1208.02        2500.00        2670.88     
  1205.51        2500.00        2671.03     
  1203.01        2500.00        2671.01     
  1200.50        2500.00        2671.32     
  1197.99        2500.00        2671.46     
  1195.49        2500.00        2671.60     
  1192.98        2500.00        2671.74     
  1190.48        2500.00        2671.88     
  1187.97        2500.00        2672.03     
  1185.46        2500.00        2672.15     
  1182.96        2500.00        2672.31     
  1180.45        2500.00        2672.45     
  1177.94        2500.00        2672.60     
  1175.44        2500.00        2672.74     
  1172.93        2500.00        2672.88     
  1170.43        2500.00        2673.01     
  1167.92        2500.00        2673.15     
  1165.41        2500.00        2673.29     
  1162.91        2500.00        2673.44     
  1160.40        2500.00        2673.56     
  1157.89        2500.00        2673.70     
  1155.39        2500.00        2673.84     
  1152.88        2500.00        2673.98     
  1150.38        2500.00        2674.11     
  1147.87        2500.00        2674.25     
  1145.36        2500.00        2674.39     
  1142.86        2500.00        2674.50     
  1140.35        2500.00        2674.65     
  1137.84        2500.00        2674.79     
  1135.34        2500.00        2674.92     
  1132.83        2500.00        2674.99     
  1130.33        2500.00        2675.19     
  1127.82        2500.00        2675.33     
  1125.31        2500.00        2675.65     
  1122.81        2500.00        2675.63     
  1120.30        2500.00        2675.72     
  1117.79        2500.00        2675.85     
  1115.29        2500.00        2676.03     
  1112.78        2500.00        2676.16     
  1110.28        2500.00        2676.23     
  1107.77        2500.00        2676.36     
  1105.26        2500.00        2676.49     
  1102.76        2500.00        2676.61     
  1100.25        2500.00        2676.77     
  1097.74        2500.00        2676.85     
  1095.24        2500.00        2677.03     
  1092.73        2500.00        2677.22     
  1090.23        2500.00        2677.40     
  1087.72        2500.00        2677.60     
  1085.21        2500.00        2677.79     
  1082.71        2500.00        2677.97     
  1080.20        2500.00        2678.17     
  1077.69        2500.00        2678.34     
  1075.19        2500.00        2678.52     
  1072.68        2500.00        2678.73     
  1070.18        2500.00        2678.92     
  1067.67        2500.00        2679.11     
  1065.16        2500.00        2679.30     
  1062.66        2500.00        2679.49     
  1060.15        2500.00        2679.68     
  1057.64        2500.00        2679.86     
  1055.14        2500.00        2680.04     
  1052.63        2500.00        2680.21     
  1050.13        2500.00        2680.45     
  1047.62        2500.00        2680.58     
  1045.11        2500.00        2680.77     
  1042.61        2500.00        2680.97     
  1040.10        2500.00        2681.22     
  1037.59        2500.00        2681.41     
  1035.09        2500.00        2681.61     
  1032.58        2500.00        2681.82     
  1030.08        2500.00        2681.99     
  1027.57        2500.00        2682.20     
  1025.06        2500.00        2682.39     
  1022.56        2500.00        2682.59     
  1020.05        2500.00        2682.79     
  1017.54        2500.00        2682.99     
  1015.04        2500.00        2683.19     
  1012.53        2500.00        2683.39     
  1010.03        2500.00        2683.98     
  1007.52        2500.00        2684.10     
  1005.01        2500.00        2684.22     
  1002.51        2500.00        2684.34     
  1000.00        2500.00        2684.46     
