|6.6.6
Archiving\03_Data\DeqLP/QFM_m2/T13/T13_6.tab                          
           1
T(K)    
  0.000000000000000E+000
  0.000000000000000E+000
           0
           3
T(K)           P(bar)         rho,kg/m3     
  2000.00        500.000        8099.88     
  1996.79        500.000        8101.72     
  1993.59        500.000        8103.55     
  1990.38        500.000        8105.38     
  1987.18        500.000        8107.21     
  1983.97        500.000        8109.03     
  1980.77        500.000        8110.86     
  1977.56        500.000        8112.68     
  1974.36        500.000        8114.50     
  1971.15        500.000        8116.32     
  1967.95        500.000        8118.14     
  1964.74        500.000        8119.96     
  1961.54        500.000        8121.78     
  1958.33        500.000        8123.59     
  1955.13        500.000        8125.41     
  1951.92        500.000        8127.22     
  1948.72        500.000        8129.03     
  1945.51        500.000        3202.12     
  1942.31        500.000        3179.73     
  1939.10        500.000        3175.73     
  1935.90        500.000        3173.10     
  1932.69        500.000        3170.66     
  1929.49        500.000        3169.25     
  1926.28        500.000        3168.40     
  1923.08        500.000        3167.90     
  1919.87        500.000        3170.31     
  1916.67        500.000        3172.21     
  1913.46        500.000        3173.78     
  1910.26        500.000        3175.12     
  1907.05        500.000        3176.29     
  1903.85        500.000        3177.35     
  1900.64        500.000        3178.31     
  1897.44        500.000        3179.20     
  1894.23        500.000        3181.32     
  1891.03        500.000        3183.22     
  1887.82        500.000        3184.95     
  1884.62        500.000        3186.55     
  1881.41        500.000        3189.97     
  1878.21        500.000        3192.55     
  1875.00        500.000        3195.68     
  1871.79        500.000        3198.57     
  1868.59        500.000        3201.85     
  1865.38        500.000        3204.92     
  1862.18        500.000        3207.78     
  1858.97        500.000        3210.47     
  1855.77        500.000        3212.99     
  1852.56        500.000        3215.38     
  1849.36        500.000        3217.64     
  1846.15        500.000        3219.78     
  1842.95        500.000        3222.62     
  1839.74        500.000        3225.31     
  1836.54        500.000        3227.88     
  1833.33        500.000        3230.34     
  1830.13        500.000        3232.70     
  1826.92        500.000        3234.96     
  1823.72        500.000        3237.13     
  1820.51        500.000        3239.22     
  1817.31        500.000        3241.80     
  1814.10        500.000        3244.29     
  1810.90        500.000        3246.69     
  1807.69        500.000        3249.01     
  1804.49        500.000        3251.25     
  1801.28        500.000        3253.42     
  1798.08        500.000        3255.52     
  1794.87        500.000        3257.56     
  1791.67        500.000        3259.90     
  1788.46        500.000        3262.18     
  1785.26        500.000        3264.39     
  1782.05        500.000        3266.54     
  1778.85        500.000        3268.63     
  1775.64        500.000        3270.67     
  1772.44        500.000        3272.66     
  1769.23        500.000        3274.59     
  1766.03        500.000        3276.71     
  1762.82        500.000        3278.78     
  1759.62        500.000        3280.80     
  1756.41        500.000        3282.78     
  1753.21        500.000        3284.71     
  1750.00        500.000        3286.60     
  1746.79        500.000        3288.45     
  1743.59        500.000        3290.27     
  1740.38        500.000        3292.17     
  1737.18        500.000        3294.04     
  1733.97        500.000        3295.87     
  1730.77        500.000        3297.67     
  1727.56        500.000        3299.43     
  1724.36        500.000        3301.17     
  1721.15        500.000        3302.87     
  1717.95        500.000        3304.54     
  1714.74        500.000        3306.19     
  1711.54        500.000        3307.82     
  1708.33        500.000        3309.42     
  1705.13        500.000        3310.99     
  1701.92        500.000        3312.54     
  1698.72        500.000        3314.07     
  1695.51        500.000        3315.58     
  1692.31        500.000        3317.07     
  1689.10        500.000        3318.50     
  1685.90        500.000        3319.92     
  1682.69        500.000        3321.32     
  1679.49        500.000        3322.71     
  1676.28        500.000        3324.07     
  1673.08        500.000        3325.43     
  1669.87        500.000        3326.76     
  1666.67        500.000        3328.08     
  1663.46        500.000        3329.30     
  1660.26        500.000        3330.51     
  1657.05        500.000        3331.71     
  1653.85        500.000        3332.89     
  1650.64        500.000        3334.07     
  1647.44        500.000        3335.23     
  1644.23        500.000        3336.38     
  1641.03        500.000        3337.52     
  1637.82        500.000        3338.59     
  1634.62        500.000        3339.64     
  1631.41        500.000        3340.69     
  1628.21        500.000        3341.73     
  1625.00        500.000        3342.76     
  1621.79        500.000        3343.79     
  1618.59        500.000        3344.80     
  1615.38        500.000        3345.81     
  1612.18        500.000        3346.76     
  1608.97        500.000        3347.69     
  1605.77        500.000        3348.63     
  1602.56        500.000        3349.55     
  1599.36        500.000        3349.26     
  1596.15        500.000        3348.73     
  1592.95        500.000        3348.29     
  1589.74        500.000        3347.88     
  1586.54        500.000        3347.65     
  1583.33        500.000        3347.44     
  1580.13        500.000        3347.25     
  1576.92        500.000        3347.06     
  1573.72        500.000        3346.89     
  1570.51        500.000        3346.73     
  1567.31        500.000        3346.59     
  1564.10        500.000        3346.45     
  1560.90        500.000        3346.48     
  1557.69        500.000        3346.51     
  1554.49        500.000        3346.55     
  1551.28        500.000        3346.59     
  1548.08        500.000        3346.64     
  1544.87        500.000        3346.70     
  1541.67        500.000        3346.76     
  1538.46        500.000        3346.83     
  1535.26        500.000        3346.97     
  1532.05        500.000        3347.11     
  1528.85        500.000        3347.25     
  1525.64        500.000        3347.40     
  1522.44        500.000        3347.56     
  1519.23        500.000        3347.71     
  1516.03        500.000        3347.87     
  1512.82        500.000        3348.03     
  1509.62        500.000        3348.22     
  1506.41        500.000        3348.41     
  1503.21        500.000        3348.60     
  1500.00        500.000        3348.80     
  1496.79        500.000        3348.99     
  1493.59        500.000        3349.19     
  1490.38        500.000        3349.40     
  1487.18        500.000        3349.60     
  1483.97        500.000        3349.82     
  1480.77        500.000        3350.03     
  1477.56        500.000        3350.25     
  1474.36        500.000        3350.47     
  1471.15        500.000        3350.69     
  1467.95        500.000        3350.90     
  1464.74        500.000        3351.13     
  1461.54        500.000        3351.36     
  1458.33        500.000        3351.67     
  1455.13        500.000        3351.98     
  1451.92        500.000        3352.29     
  1448.72        500.000        3352.60     
  1445.51        500.000        3352.91     
  1442.31        500.000        3353.22     
  1439.10        500.000        3353.53     
  1435.90        500.000        3353.85     
  1432.69        500.000        3352.41     
  1429.49        500.000        3351.05     
  1426.28        500.000        3351.49     
  1423.08        500.000        3349.00     
  1419.87        500.000        3349.45     
  1416.67        500.000        3349.89     
  1413.46        500.000        3350.34     
  1410.26        500.000        3346.53     
  1407.05        500.000        3346.97     
  1403.85        500.000        3347.41     
  1400.64        500.000        3347.85     
  1397.44        500.000        3348.29     
  1394.23        500.000        3348.73     
  1391.03        500.000        3349.17     
  1387.82        500.000        3349.61     
  1384.62        500.000        3344.52     
  1381.41        500.000        3344.96     
  1378.21        500.000        3345.39     
  1375.00        500.000        3345.83     
  1371.79        500.000        3346.27     
  1368.59        500.000        3346.70     
  1365.38        500.000        3347.14     
  1362.18        500.000        3347.57     
  1358.97        500.000        3344.08     
  1355.77        500.000        3344.51     
  1352.56        500.000        3344.95     
  1349.36        500.000        3345.38     
  1346.15        500.000        3345.81     
  1342.95        500.000        3346.24     
  1339.74        500.000        3346.67     
  1336.54        500.000        3347.10     
  1333.33        500.000        3344.34     
  1330.13        500.000        3344.76     
  1326.92        500.000        3345.19     
  1323.72        500.000        3345.62     
  1320.51        500.000        3346.05     
  1317.31        500.000        3346.48     
  1314.10        500.000        3346.91     
  1310.90        500.000        3347.33     
  1307.69        500.000        3345.02     
  1304.49        500.000        3345.44     
  1301.28        500.000        3345.24     
  1298.08        500.000        3338.95     
  1294.87        500.000        3339.32     
  1291.67        500.000        3339.74     
  1288.46        500.000        3340.17     
  1285.26        500.000        3340.59     
  1282.05        500.000        3340.80     
  1278.85        500.000        3341.22     
  1275.64        500.000        3341.64     
  1272.44        500.000        3342.06     
  1269.23        500.000        3342.49     
  1266.03        500.000        3342.91     
  1262.82        500.000        3343.33     
  1259.62        500.000        3343.75     
  1256.41        500.000        3343.78     
  1253.21        500.000        3344.20     
  1250.00        500.000        3344.61     
  1246.79        500.000        3345.03     
  1243.59        500.000        3345.45     
  1240.38        500.000        3345.87     
  1237.18        500.000        3346.29     
  1233.97        500.000        3346.71     
  1230.77        500.000        3346.77     
  1227.56        500.000        3347.19     
  1224.36        500.000        3347.60     
  1221.15        500.000        3348.02     
  1217.95        500.000        3348.44     
  1214.74        500.000        3348.85     
  1211.54        500.000        3349.27     
  1208.33        500.000        3349.68     
  1205.13        500.000        3349.78     
  1201.92        500.000        3350.19     
  1198.72        500.000        3350.61     
  1195.51        500.000        3351.02     
  1192.31        500.000        3351.43     
  1189.10        500.000        3351.85     
  1185.90        500.000        3352.26     
  1182.69        500.000        3352.68     
  1179.49        500.000        3352.79     
  1176.28        500.000        3353.21     
  1173.08        500.000        3353.62     
  1169.87        500.000        3354.03     
  1166.67        500.000        3354.44     
  1163.46        500.000        3354.86     
  1160.26        500.000        3355.27     
  1157.05        500.000        3355.68     
  1153.85        500.000        3355.83     
  1150.64        500.000        3356.24     
  1147.44        500.000        3356.65     
  1144.23        500.000        3357.06     
  1141.03        500.000        3357.47     
  1137.82        500.000        3357.88     
  1134.62        500.000        3358.29     
  1131.41        500.000        3358.70     
  1128.21        500.000        3358.87     
  1125.00        500.000        3359.28     
  1121.79        500.000        3359.69     
  1118.59        500.000        3360.10     
  1115.38        500.000        3360.51     
  1112.18        500.000        3360.91     
  1108.97        500.000        3361.32     
  1105.77        500.000        3361.73     
  1102.56        500.000        3361.93     
  1099.36        500.000        3362.34     
  1096.15        500.000        3362.75     
  1092.95        500.000        3363.15     
  1089.74        500.000        3363.56     
  1086.54        500.000        3363.97     
  1083.33        500.000        3364.37     
  1080.13        500.000        3364.78     
  1076.92        500.000        3365.01     
  1073.72        500.000        3365.42     
  1070.51        500.000        3365.82     
  1067.31        500.000        3366.22     
  1064.10        500.000        3366.56     
  1060.90        500.000        3366.94     
  1057.69        500.000        3367.33     
  1054.49        500.000        3367.73     
  1051.28        500.000        3368.10     
  1048.08        500.000        3368.50     
  1044.87        500.000        3368.91     
  1041.67        500.000        3369.31     
  1038.46        500.000        3369.71     
  1035.26        500.000        3370.11     
  1032.05        500.000        3370.52     
  1028.85        500.000        3370.92     
  1025.64        500.000        3371.18     
  1022.44        500.000        3371.58     
  1019.23        500.000        3371.98     
  1016.03        500.000        3372.38     
  1012.82        500.000        3372.78     
  1009.62        500.000        3373.18     
  1006.41        500.000        3373.58     
  1003.21        500.000        3373.98     
  1000.00        500.000        3374.27     
