|6.6.6
Archiving\03_Data\fracLP/QFM_m4/TIS/TIS_6.tab                             
           1
T(K)    
  0.000000000000000E+000
  0.000000000000000E+000
           0
           3
T(K)           P(bar)         rho,kg/m3     
  2000.00        500.000        3584.12     
  1997.49        500.000        3584.50     
  1994.99        500.000        3584.87     
  1992.48        500.000        3585.25     
  1989.97        500.000        3585.62     
  1987.47        500.000        3586.00     
  1984.96        500.000        3586.37     
  1982.46        500.000        3586.75     
  1979.95        500.000        3587.12     
  1977.44        500.000        3587.50     
  1974.94        500.000        3587.87     
  1972.43        500.000        3588.25     
  1969.92        500.000        3588.62     
  1967.42        500.000        3589.00     
  1964.91        500.000        3589.37     
  1962.41        500.000        3589.75     
  1959.90        500.000        3590.12     
  1957.39        500.000        3590.49     
  1954.89        500.000        3590.87     
  1952.38        500.000        3591.24     
  1949.87        500.000        3591.61     
  1947.37        500.000        3591.99     
  1944.86        500.000        3592.36     
  1942.36        500.000        3592.73     
  1939.85        500.000        3593.11     
  1937.34        500.000        3593.48     
  1934.84        500.000        3593.85     
  1932.33        500.000        3594.22     
  1929.82        500.000        3594.60     
  1927.32        500.000        3594.97     
  1924.81        500.000        3595.34     
  1922.31        500.000        3595.71     
  1919.80        500.000        3596.08     
  1917.29        500.000        3596.46     
  1914.79        500.000        3596.83     
  1912.28        500.000        3597.20     
  1909.77        500.000        3597.57     
  1907.27        500.000        3597.94     
  1904.76        500.000        3598.31     
  1902.26        500.000        3598.68     
  1899.75        500.000        3599.05     
  1897.24        500.000        3599.42     
  1894.74        500.000        3599.79     
  1892.23        500.000        3600.17     
  1889.72        500.000        3600.54     
  1887.22        500.000        3600.91     
  1884.71        500.000        3601.28     
  1882.21        500.000        3601.65     
  1879.70        500.000        3602.02     
  1877.19        500.000        3602.39     
  1874.69        500.000        3602.75     
  1872.18        500.000        3603.12     
  1869.67        500.000        3603.49     
  1867.17        500.000        3603.86     
  1864.66        500.000        3604.23     
  1862.16        500.000        3604.60     
  1859.65        500.000        3604.97     
  1857.14        500.000        3605.34     
  1854.64        500.000        3605.71     
  1852.13        500.000        3606.07     
  1849.62        500.000        3606.44     
  1847.12        500.000        3606.81     
  1844.61        500.000        3607.18     
  1842.11        500.000        3607.55     
  1839.60        500.000        3607.91     
  1837.09        500.000        3608.28     
  1834.59        500.000        3608.65     
  1832.08        500.000        3609.02     
  1829.57        500.000        3609.38     
  1827.07        500.000        3609.75     
  1824.56        500.000        3610.12     
  1822.06        500.000        3610.49     
  1819.55        500.000        3610.85     
  1817.04        500.000        3611.22     
  1814.54        500.000        3611.59     
  1812.03        500.000        3611.95     
  1809.52        500.000        3612.32     
  1807.02        500.000        3612.68     
  1804.51        500.000        3613.05     
  1802.01        500.000        3613.42     
  1799.50        500.000        3613.78     
  1796.99        500.000        3614.15     
  1794.49        500.000        3614.51     
  1791.98        500.000        3614.88     
  1789.47        500.000        3615.24     
  1786.97        500.000        3615.61     
  1784.46        500.000        3615.97     
  1781.95        500.000        3616.34     
  1779.45        500.000        3616.70     
  1776.94        500.000        3617.07     
  1774.44        500.000        3617.43     
  1771.93        500.000        3617.80     
  1769.42        500.000        3618.16     
  1766.92        500.000        3618.53     
  1764.41        500.000        3618.89     
  1761.90        500.000        3619.25     
  1759.40        500.000        3619.62     
  1756.89        500.000        3619.98     
  1754.39        500.000        3620.34     
  1751.88        500.000        3620.71     
  1749.37        500.000        3621.07     
  1746.87        500.000        3621.43     
  1744.36        500.000        3621.80     
  1741.85        500.000        3622.16     
  1739.35        500.000        3622.52     
  1736.84        500.000        3622.89     
  1734.34        500.000        3623.25     
  1731.83        500.000        3623.61     
  1729.32        500.000        3623.97     
  1726.82        500.000        3624.33     
  1724.31        500.000        3624.70     
  1721.80        500.000        3625.06     
  1719.30        500.000        3625.42     
  1716.79        500.000        3625.78     
  1714.29        500.000        3626.14     
  1711.78        500.000        3626.51     
  1709.27        500.000        3626.87     
  1706.77        500.000        3627.23     
  1704.26        500.000        3627.59     
  1701.75        500.000        3627.95     
  1699.25        500.000        3628.31     
  1696.74        500.000        3628.67     
  1694.24        500.000        3629.03     
  1691.73        500.000        3629.39     
  1689.22        500.000        3629.75     
  1686.72        500.000        3630.11     
  1684.21        500.000        3630.47     
  1681.70        500.000        3630.83     
  1679.20        500.000        3631.19     
  1676.69        500.000        3631.55     
  1674.19        500.000        3631.91     
  1671.68        500.000        3632.48     
  1669.17        500.000        3640.49     
  1666.67        500.000        3641.75     
  1664.16        500.000        3642.01     
  1661.65        500.000        3647.24     
  1659.15        500.000        3641.24     
  1656.64        500.000        3639.23     
  1654.14        500.000        3582.61     
  1651.63        500.000        3439.70     
  1649.12        500.000        3400.89     
  1646.62        500.000        3402.35     
  1644.11        500.000        3404.62     
  1641.60        500.000        3407.92     
  1639.10        500.000        3419.54     
  1636.59        500.000        3397.60     
  1634.09        500.000        3408.11     
  1631.58        500.000        3415.70     
  1629.07        500.000        3418.04     
  1626.57        500.000        3420.43     
  1624.06        500.000        3422.29     
  1621.55        500.000        3424.31     
  1619.05        500.000        3424.90     
  1616.54        500.000        3429.08     
  1614.04        500.000        3430.95     
  1611.53        500.000        3432.62     
  1609.02        500.000        3435.77     
  1606.52        500.000        3436.76     
  1604.01        500.000        3439.44     
  1601.50        500.000        3442.34     
  1599.00        500.000        3444.81     
  1596.49        500.000        3446.03     
  1593.98        500.000        3448.19     
  1591.48        500.000        3449.28     
  1588.97        500.000        3451.73     
  1586.47        500.000        3454.58     
  1583.96        500.000        3457.12     
  1581.45        500.000        3457.78     
  1578.95        500.000        3460.10     
  1576.44        500.000        3462.52     
  1573.93        500.000        3464.88     
  1571.43        500.000        3467.22     
  1568.92        500.000        3467.16     
  1566.42        500.000        3471.22     
  1563.91        500.000        3474.33     
  1561.40        500.000        3475.49     
  1558.90        500.000        3477.52     
  1556.39        500.000        3479.63     
  1553.88        500.000        3482.01     
  1551.38        500.000        3483.94     
  1548.87        500.000        3488.86     
  1546.37        500.000        3489.40     
  1543.86        500.000        3489.83     
  1541.35        500.000        3489.59     
  1538.85        500.000        3495.51     
  1536.34        500.000        3495.59     
  1533.83        500.000        3497.98     
  1531.33        500.000        3502.09     
  1528.82        500.000        3501.50     
  1526.32        500.000        3504.00     
  1523.81        500.000        3507.68     
  1521.30        500.000        3507.83     
  1518.80        500.000        3510.93     
  1516.29        500.000        3512.87     
  1513.78        500.000        3515.10     
  1511.28        500.000        3516.51     
  1508.77        500.000        3519.40     
  1506.27        500.000        3521.30     
  1503.76        500.000        3524.17     
  1501.25        500.000        3437.56     
  1498.75        500.000        3324.24     
  1496.24        500.000        3324.93     
  1493.73        500.000        3326.16     
  1491.23        500.000        3328.30     
  1488.72        500.000        3315.49     
  1486.22        500.000        3314.31     
  1483.71        500.000        3316.49     
  1481.20        500.000        3317.67     
  1478.70        500.000        3322.51     
  1476.19        500.000        3327.80     
  1473.68        500.000        3328.93     
  1471.18        500.000        3329.45     
  1468.67        500.000        3304.04     
  1466.17        500.000        3304.33     
  1463.66        500.000        3306.78     
  1461.15        500.000        3309.22     
  1458.65        500.000        3311.73     
  1456.14        500.000        3314.03     
  1453.63        500.000        3316.42     
  1451.13        500.000        3318.64     
  1448.62        500.000        3321.43     
  1446.12        500.000        3323.71     
  1443.61        500.000        3326.12     
  1441.10        500.000        3328.91     
  1438.60        500.000        3331.35     
  1436.09        500.000        3333.95     
  1433.58        500.000        3336.59     
  1431.08        500.000        3338.96     
  1428.57        500.000        3341.57     
  1426.07        500.000        3344.34     
  1423.56        500.000        3346.46     
  1421.05        500.000        3349.11     
  1418.55        500.000        3351.52     
  1416.04        500.000        3354.57     
  1413.53        500.000        3357.28     
  1411.03        500.000        3360.24     
  1408.52        500.000        3362.46     
  1406.02        500.000        3208.92     
  1403.51        500.000        3167.16     
  1401.00        500.000        3170.59     
  1398.50        500.000        3174.14     
  1395.99        500.000        3177.90     
  1393.48        500.000        3181.46     
  1390.98        500.000        3185.04     
  1388.47        500.000        3188.47     
  1385.96        500.000        3192.24     
  1383.46        500.000        3195.82     
  1380.95        500.000        3199.29     
  1378.45        500.000        3203.10     
  1375.94        500.000        3206.86     
  1373.43        500.000        3210.58     
  1370.93        500.000        3214.34     
  1368.42        500.000        3218.09     
  1365.91        500.000        3221.90     
  1363.41        500.000        3252.74     
  1360.90        500.000        3261.65     
  1358.40        500.000        3265.18     
  1355.89        500.000        3269.15     
  1353.38        500.000        3273.44     
  1350.88        500.000        3275.29     
  1348.37        500.000        3280.47     
  1345.86        500.000        3282.77     
  1343.36        500.000        3287.21     
  1340.85        500.000        3290.89     
  1338.35        500.000        3294.83     
  1335.84        500.000        3297.84     
  1333.33        500.000        3301.20     
  1330.83        500.000        3304.27     
  1328.32        500.000        3307.52     
  1325.81        500.000        3326.46     
  1323.31        500.000        3350.71     
  1320.80        500.000        3353.97     
  1318.30        500.000        3357.49     
  1315.79        500.000        3357.17     
  1313.28        500.000        3360.84     
  1310.78        500.000        3362.91     
  1308.27        500.000        3365.28     
  1305.76        500.000        3366.91     
  1303.26        500.000        3368.64     
  1300.75        500.000        3370.36     
  1298.25        500.000        3372.25     
  1295.74        500.000        3373.92     
  1293.23        500.000        3375.63     
  1290.73        500.000        3376.88     
  1288.22        500.000        3378.35     
  1285.71        500.000        3379.66     
  1283.21        500.000        3381.48     
  1280.70        500.000        3381.96     
  1278.20        500.000        3383.25     
  1275.69        500.000        3383.80     
  1273.18        500.000        3384.92     
  1270.68        500.000        3385.62     
  1268.17        500.000        3385.41     
  1265.66        500.000        3386.92     
  1263.16        500.000        2881.69     
  1260.65        500.000        2869.75     
  1258.15        500.000        2872.06     
  1255.64        500.000        2873.67     
  1253.13        500.000        2873.39     
  1250.63        500.000        2878.30     
  1248.12        500.000        2879.24     
  1245.61        500.000        2878.95     
  1243.11        500.000        2880.12     
  1240.60        500.000        2880.27     
  1238.10        500.000        2880.60     
  1235.59        500.000        2880.43     
  1233.08        500.000        2879.71     
  1230.58        500.000        2880.12     
  1228.07        500.000        2882.26     
  1225.56        500.000        2880.29     
  1223.06        500.000        2880.21     
  1220.55        500.000        2879.01     
  1218.05        500.000        2695.59     
  1215.54        500.000        2689.89     
  1213.03        500.000        2689.10     
  1210.53        500.000        2683.96     
  1208.02        500.000        2689.23     
  1205.51        500.000        2680.59     
  1203.01        500.000        2681.52     
  1200.50        500.000        2642.71     
  1197.99        500.000        3255.28     
  1195.49        500.000        2715.07     
  1192.98        500.000        2732.14     
  1190.48        500.000        2629.66     
  1187.97        500.000        2626.78     
  1185.46        500.000        2629.86     
  1182.96        500.000        2629.97     
  1180.45        500.000        2629.99     
  1177.94        500.000        2630.03     
  1175.44        500.000        2630.07     
  1172.93        500.000        2630.10     
  1170.43        500.000        2630.15     
  1167.92        500.000        2630.26     
  1165.41        500.000        2630.30     
  1162.91        500.000        2630.34     
  1160.40        500.000        2630.38     
  1157.89        500.000        2630.42     
  1155.39        500.000        2630.46     
  1152.88        500.000        2630.51     
  1150.38        500.000        2630.55     
  1147.87        500.000        2630.59     
  1145.36        500.000        2627.39     
  1142.86        500.000        2630.68     
  1140.35        500.000        2630.74     
  1137.84        500.000        2630.79     
  1135.34        500.000        2630.85     
  1132.83        500.000        2630.90     
  1130.33        500.000        2630.95     
  1127.82        500.000        2631.01     
  1125.31        500.000        2631.06     
  1122.81        500.000        2631.21     
  1120.30        500.000        2631.19     
  1117.79        500.000        2631.23     
  1115.29        500.000        2631.30     
  1112.78        500.000        2631.36     
  1110.28        500.000        2631.42     
  1107.77        500.000        2631.49     
  1105.26        500.000        2633.44     
  1102.76        500.000        2631.62     
  1100.25        500.000        2631.67     
  1097.74        500.000        2631.74     
  1095.24        500.000        2631.85     
  1092.73        500.000        2631.90     
  1090.23        500.000        2631.91     
  1087.72        500.000        2632.02     
  1085.21        500.000        2632.03     
  1082.71        500.000        2629.89     
  1080.20        500.000        2628.27     
  1077.69        500.000        2630.10     
  1075.19        500.000        2630.18     
  1072.68        500.000        2632.39     
  1070.18        500.000        2630.32     
  1067.67        500.000        2632.55     
  1065.16        500.000        2630.57     
  1062.66        500.000        2632.71     
  1060.15        500.000        2630.77     
  1057.64        500.000        2632.91     
  1055.14        500.000        2632.94     
  1052.63        500.000        2633.02     
  1050.13        500.000        2631.39     
  1047.62        500.000        2633.25     
  1045.11        500.000        2633.26     
  1042.61        500.000        2629.83     
  1040.10        500.000        2633.45     
  1037.59        500.000        2631.60     
  1035.09        500.000        2630.15     
  1032.58        500.000        2630.25     
  1030.08        500.000        2630.35     
  1027.57        500.000        2630.46     
  1025.06        500.000        2630.56     
  1022.56        500.000        2630.67     
  1020.05        500.000        2630.77     
  1017.54        500.000        2634.24     
  1015.04        500.000        2630.98     
  1012.53        500.000        2632.59     
  1010.03        500.000        2631.18     
  1007.52        500.000        2631.29     
  1005.01        500.000        2634.67     
  1002.51        500.000        2634.76     
  1000.00        500.000        2634.85     
