|6.6.6
Archiving\03_Data\eqLP/QFM_m3.25/Y98/Y98_6.tab                            
           1
T(K)    
  0.000000000000000E+000
  0.000000000000000E+000
           0
           3
T(K)           P(bar)         rho,kg/m3     
  2000.00        500.000        3600.76     
  1996.79        500.000        3601.24     
  1993.59        500.000        3601.72     
  1990.38        500.000        3602.21     
  1987.18        500.000        3602.69     
  1983.97        500.000        3603.17     
  1980.77        500.000        3603.66     
  1977.56        500.000        3604.14     
  1974.36        500.000        3604.62     
  1971.15        500.000        3605.11     
  1967.95        500.000        3605.59     
  1964.74        500.000        3606.07     
  1961.54        500.000        3606.55     
  1958.33        500.000        3607.03     
  1955.13        500.000        3607.51     
  1951.92        500.000        3608.00     
  1948.72        500.000        3608.48     
  1945.51        500.000        3608.96     
  1942.31        500.000        3609.44     
  1939.10        500.000        3609.92     
  1935.90        500.000        3610.40     
  1932.69        500.000        3610.88     
  1929.49        500.000        3611.36     
  1926.28        500.000        3611.84     
  1923.08        500.000        3612.32     
  1919.87        500.000        3612.79     
  1916.67        500.000        3613.27     
  1913.46        500.000        3613.75     
  1910.26        500.000        3614.23     
  1907.05        500.000        3614.71     
  1903.85        500.000        3615.19     
  1900.64        500.000        3615.66     
  1897.44        500.000        3616.14     
  1894.23        500.000        3616.62     
  1891.03        500.000        3617.09     
  1887.82        500.000        3617.57     
  1884.62        500.000        3618.05     
  1881.41        500.000        3618.52     
  1878.21        500.000        3619.00     
  1875.00        500.000        3619.48     
  1871.79        500.000        3619.95     
  1868.59        500.000        3620.43     
  1865.38        500.000        3620.90     
  1862.18        500.000        3621.38     
  1858.97        500.000        3621.85     
  1855.77        500.000        3622.33     
  1852.56        500.000        3622.80     
  1849.36        500.000        3623.28     
  1846.15        500.000        3623.75     
  1842.95        500.000        3624.22     
  1839.74        500.000        3624.70     
  1836.54        500.000        3625.17     
  1833.33        500.000        3625.64     
  1830.13        500.000        3626.12     
  1826.92        500.000        3626.59     
  1823.72        500.000        3627.06     
  1820.51        500.000        3627.54     
  1817.31        500.000        3628.01     
  1814.10        500.000        3628.48     
  1810.90        500.000        3628.95     
  1807.69        500.000        3629.42     
  1804.49        500.000        3629.89     
  1801.28        500.000        3630.37     
  1798.08        500.000        3630.84     
  1794.87        500.000        3631.31     
  1791.67        500.000        3631.78     
  1788.46        500.000        3632.25     
  1785.26        500.000        3632.72     
  1782.05        500.000        3633.19     
  1778.85        500.000        3633.66     
  1775.64        500.000        3634.13     
  1772.44        500.000        3634.60     
  1769.23        500.000        3635.07     
  1766.03        500.000        3635.54     
  1762.82        500.000        3636.00     
  1759.62        500.000        3636.47     
  1756.41        500.000        3636.94     
  1753.21        500.000        3637.41     
  1750.00        500.000        3637.88     
  1746.79        500.000        3638.34     
  1743.59        500.000        3638.81     
  1740.38        500.000        3639.28     
  1737.18        500.000        3639.75     
  1733.97        500.000        3640.21     
  1730.77        500.000        3640.68     
  1727.56        500.000        3641.15     
  1724.36        500.000        3641.61     
  1721.15        500.000        3642.08     
  1717.95        500.000        3642.54     
  1714.74        500.000        3643.01     
  1711.54        500.000        3643.48     
  1708.33        500.000        3643.94     
  1705.13        500.000        3644.41     
  1701.92        500.000        3644.87     
  1698.72        500.000        3645.34     
  1695.51        500.000        3645.80     
  1692.31        500.000        3646.26     
  1689.10        500.000        3646.73     
  1685.90        500.000        3647.34     
  1682.69        500.000        3660.12     
  1679.49        500.000        3672.53     
  1676.28        500.000        3684.30     
  1673.08        500.000        3695.75     
  1669.87        500.000        3706.90     
  1666.67        500.000        3717.76     
  1663.46        500.000        3727.96     
  1660.26        500.000        3737.91     
  1657.05        500.000        3747.62     
  1653.85        500.000        3757.11     
  1650.64        500.000        3665.67     
  1647.44        500.000        3542.03     
  1644.23        500.000        3490.37     
  1641.03        500.000        3461.53     
  1637.82        500.000        3448.10     
  1634.62        500.000        3439.80     
  1631.41        500.000        3433.08     
  1628.21        500.000        3427.84     
  1625.00        500.000        3423.88     
  1621.79        500.000        3420.72     
  1618.59        500.000        3418.16     
  1615.38        500.000        3416.06     
  1612.18        500.000        3415.42     
  1608.97        500.000        3414.92     
  1605.77        500.000        3414.55     
  1602.56        500.000        3414.27     
  1599.36        500.000        3414.07     
  1596.15        500.000        3413.94     
  1592.95        500.000        3413.88     
  1589.74        500.000        3413.86     
  1586.54        500.000        3414.50     
  1583.33        500.000        3415.14     
  1580.13        500.000        3415.76     
  1576.92        500.000        3416.37     
  1573.72        500.000        3413.48     
  1570.51        500.000        3402.60     
  1567.31        500.000        3393.87     
  1564.10        500.000        3386.33     
  1560.90        500.000        3380.94     
  1557.69        500.000        3376.15     
  1554.49        500.000        3371.87     
  1551.28        500.000        3368.03     
  1548.08        500.000        3364.56     
  1544.87        500.000        3361.43     
  1541.67        500.000        3358.58     
  1538.46        500.000        3356.00     
  1535.26        500.000        3354.38     
  1532.05        500.000        3352.89     
  1528.85        500.000        3351.52     
  1525.64        500.000        3350.25     
  1522.44        500.000        3349.08     
  1519.23        500.000        3348.00     
  1516.03        500.000        3347.01     
  1512.82        500.000        3346.09     
  1509.62        500.000        3345.46     
  1506.41        500.000        3344.88     
  1503.21        500.000        3344.35     
  1500.00        500.000        3343.86     
  1496.79        500.000        3343.51     
  1493.59        500.000        3343.25     
  1490.38        500.000        3343.44     
  1487.18        500.000        3343.65     
  1483.97        500.000        3343.86     
  1480.77        500.000        3344.08     
  1477.56        500.000        3344.29     
  1474.36        500.000        3343.85     
  1471.15        500.000        3343.28     
  1467.95        500.000        3342.89     
  1464.74        500.000        3343.34     
  1461.54        500.000        3342.62     
  1458.33        500.000        3343.07     
  1455.13        500.000        3343.52     
  1451.92        500.000        3343.97     
  1448.72        500.000        3343.52     
  1445.51        500.000        3343.99     
  1442.31        500.000        3344.50     
  1439.10        500.000        3345.01     
  1435.90        500.000        3343.15     
  1432.69        500.000        3343.59     
  1429.49        500.000        3344.04     
  1426.28        500.000        3344.48     
  1423.08        500.000        3344.92     
  1419.87        500.000        3345.37     
  1416.67        500.000        3345.81     
  1413.46        500.000        3346.25     
  1410.26        500.000        3312.38     
  1407.05        500.000        3312.80     
  1403.85        500.000        3313.23     
  1400.64        500.000        3313.65     
  1397.44        500.000        3314.08     
  1394.23        500.000        3314.50     
  1391.03        500.000        3314.92     
  1387.82        500.000        3315.35     
  1384.62        500.000        3301.55     
  1381.41        500.000        3301.97     
  1378.21        500.000        3302.38     
  1375.00        500.000        3302.80     
  1371.79        500.000        3303.21     
  1368.59        500.000        3303.63     
  1365.38        500.000        3304.04     
  1362.18        500.000        3304.46     
  1358.97        500.000        3294.66     
  1355.77        500.000        3295.07     
  1352.56        500.000        3295.48     
  1349.36        500.000        3295.88     
  1346.15        500.000        3296.29     
  1342.95        500.000        3296.70     
  1339.74        500.000        3297.11     
  1336.54        500.000        3297.52     
  1333.33        500.000        3289.35     
  1330.13        500.000        3289.76     
  1326.92        500.000        3290.16     
  1323.72        500.000        3290.56     
  1320.51        500.000        3287.12     
  1317.31        500.000        3287.16     
  1314.10        500.000        3287.49     
  1310.90        500.000        3287.89     
  1307.69        500.000        3288.13     
  1304.49        500.000        3288.53     
  1301.28        500.000        3288.93     
  1298.08        500.000        3289.33     
  1294.87        500.000        3289.73     
  1291.67        500.000        3290.12     
  1288.46        500.000        3290.52     
  1285.26        500.000        3290.92     
  1282.05        500.000        3290.76     
  1278.85        500.000        3291.16     
  1275.64        500.000        3291.55     
  1272.44        500.000        3291.95     
  1269.23        500.000        3292.34     
  1266.03        500.000        3292.74     
  1262.82        500.000        3293.13     
  1259.62        500.000        3293.53     
  1256.41        500.000        3293.40     
  1253.21        500.000        3293.79     
  1250.00        500.000        3294.19     
  1246.79        500.000        3294.58     
  1243.59        500.000        3294.97     
  1240.38        500.000        3295.37     
  1237.18        500.000        3295.76     
  1233.97        500.000        3296.15     
  1230.77        500.000        3296.07     
  1227.56        500.000        3296.46     
  1224.36        500.000        3296.85     
  1221.15        500.000        3297.24     
  1217.95        500.000        3297.63     
  1214.74        500.000        3298.03     
  1211.54        500.000        3298.42     
  1208.33        500.000        3298.81     
  1205.13        500.000        3298.74     
  1201.92        500.000        3299.13     
  1198.72        500.000        3299.52     
  1195.51        500.000        3299.91     
  1192.31        500.000        3300.29     
  1189.10        500.000        3300.68     
  1185.90        500.000        3301.07     
  1182.69        500.000        3301.46     
  1179.49        500.000        3301.45     
  1176.28        500.000        3301.84     
  1173.08        500.000        3302.22     
  1169.87        500.000        3302.61     
  1166.67        500.000        3302.99     
  1163.46        500.000        3303.38     
  1160.26        500.000        3303.76     
  1157.05        500.000        3304.15     
  1153.85        500.000        3304.15     
  1150.64        500.000        3304.53     
  1147.44        500.000        3304.91     
  1144.23        500.000        3305.30     
  1141.03        500.000        3305.68     
  1137.82        500.000        3306.06     
  1134.62        500.000        3306.45     
  1131.41        500.000        3306.83     
  1128.21        500.000        3306.85     
  1125.00        500.000        3307.24     
  1121.79        500.000        3307.62     
  1118.59        500.000        3308.00     
  1115.38        500.000        3308.38     
  1112.18        500.000        3308.76     
  1108.97        500.000        3309.14     
  1105.77        500.000        3309.52     
  1102.56        500.000        3309.57     
  1099.36        500.000        3309.95     
  1096.15        500.000        3310.33     
  1092.95        500.000        3310.71     
  1089.74        500.000        3311.09     
  1086.54        500.000        3311.46     
  1083.33        500.000        3311.84     
  1080.13        500.000        3312.22     
  1076.92        500.000        3312.31     
  1073.72        500.000        3312.68     
  1070.51        500.000        3313.06     
  1067.31        500.000        3313.44     
  1064.10        500.000        3313.81     
  1060.90        500.000        3314.19     
  1057.69        500.000        3314.56     
  1054.49        500.000        3314.94     
  1051.28        500.000        3315.00     
  1048.08        500.000        3315.37     
  1044.87        500.000        3315.75     
  1041.67        500.000        3316.12     
  1038.46        500.000        3316.49     
  1035.26        500.000        3316.87     
  1032.05        500.000        3317.24     
  1028.85        500.000        3317.61     
  1025.64        500.000        3317.71     
  1022.44        500.000        3318.08     
  1019.23        500.000        3318.45     
  1016.03        500.000        3318.82     
  1012.82        500.000        3319.19     
  1009.62        500.000        3319.56     
  1006.41        500.000        3319.93     
  1003.21        500.000        3320.30     
  1000.00        500.000        3320.40     
