|6.6.6
Archiving\03_Data\DeqLP/QFM_m3.5/T13/T13_6.tab                        
           1
T(K)    
  0.000000000000000E+000
  0.000000000000000E+000
           0
           3
T(K)           P(bar)         rho,kg/m3     
  2000.00        500.000        8099.88     
  1996.79        500.000        8101.72     
  1993.59        500.000        8103.55     
  1990.38        500.000        8105.38     
  1987.18        500.000        8107.21     
  1983.97        500.000        8109.03     
  1980.77        500.000        8110.86     
  1977.56        500.000        8112.68     
  1974.36        500.000        8114.50     
  1971.15        500.000        8116.32     
  1967.95        500.000        8118.14     
  1964.74        500.000        8119.96     
  1961.54        500.000        8121.78     
  1958.33        500.000        8123.59     
  1955.13        500.000        8125.41     
  1951.92        500.000        8127.22     
  1948.72        500.000        8129.03     
  1945.51        500.000        8130.84     
  1942.31        500.000        8132.64     
  1939.10        500.000        3336.39     
  1935.90        500.000        3192.10     
  1932.69        500.000        3180.03     
  1929.49        500.000        3175.52     
  1926.28        500.000        3173.32     
  1923.08        500.000        3172.13     
  1919.87        500.000        3173.26     
  1916.67        500.000        3174.22     
  1913.46        500.000        3175.56     
  1910.26        500.000        3176.92     
  1907.05        500.000        3179.23     
  1903.85        500.000        3181.25     
  1900.64        500.000        3183.04     
  1897.44        500.000        3184.66     
  1894.23        500.000        3187.02     
  1891.03        500.000        3189.16     
  1887.82        500.000        3191.11     
  1884.62        500.000        3192.91     
  1881.41        500.000        3194.15     
  1878.21        500.000        3196.46     
  1875.00        500.000        3199.67     
  1871.79        500.000        3202.65     
  1868.59        500.000        3205.98     
  1865.38        500.000        3209.10     
  1862.18        500.000        3212.02     
  1858.97        500.000        3214.78     
  1855.77        500.000        3217.38     
  1852.56        500.000        3219.84     
  1849.36        500.000        3222.18     
  1846.15        500.000        3224.40     
  1842.95        500.000        3227.24     
  1839.74        500.000        3229.94     
  1836.54        500.000        3232.53     
  1833.33        500.000        3235.01     
  1830.13        500.000        3237.39     
  1826.92        500.000        3239.68     
  1823.72        500.000        3241.88     
  1820.51        500.000        3244.00     
  1817.31        500.000        3246.57     
  1814.10        500.000        3249.05     
  1810.90        500.000        3251.45     
  1807.69        500.000        3253.77     
  1804.49        500.000        3256.02     
  1801.28        500.000        3258.20     
  1798.08        500.000        3260.31     
  1794.87        500.000        3262.36     
  1791.67        500.000        3264.66     
  1788.46        500.000        3266.90     
  1785.26        500.000        3269.08     
  1782.05        500.000        3271.20     
  1778.85        500.000        3273.27     
  1775.64        500.000        3275.29     
  1772.44        500.000        3277.26     
  1769.23        500.000        3279.18     
  1766.03        500.000        3281.27     
  1762.82        500.000        3283.31     
  1759.62        500.000        3285.31     
  1756.41        500.000        3287.27     
  1753.21        500.000        3289.19     
  1750.00        500.000        3291.06     
  1746.79        500.000        3292.90     
  1743.59        500.000        3294.70     
  1740.38        500.000        3296.53     
  1737.18        500.000        3298.33     
  1733.97        500.000        3300.09     
  1730.77        500.000        3301.83     
  1727.56        500.000        3303.53     
  1724.36        500.000        3305.20     
  1721.15        500.000        3306.85     
  1717.95        500.000        3308.47     
  1714.74        500.000        3310.06     
  1711.54        500.000        3311.63     
  1708.33        500.000        3313.17     
  1705.13        500.000        3314.70     
  1701.92        500.000        3316.20     
  1698.72        500.000        3317.68     
  1695.51        500.000        3319.14     
  1692.31        500.000        3320.58     
  1689.10        500.000        3321.94     
  1685.90        500.000        3323.28     
  1682.69        500.000        3324.61     
  1679.49        500.000        3325.93     
  1676.28        500.000        3327.22     
  1673.08        500.000        3328.51     
  1669.87        500.000        3329.78     
  1666.67        500.000        3331.04     
  1663.46        500.000        3332.20     
  1660.26        500.000        3333.36     
  1657.05        500.000        3334.51     
  1653.85        500.000        3335.65     
  1650.64        500.000        3336.77     
  1647.44        500.000        3337.89     
  1644.23        500.000        3339.00     
  1641.03        500.000        3340.10     
  1637.82        500.000        3341.10     
  1634.62        500.000        3342.11     
  1631.41        500.000        3343.10     
  1628.21        500.000        3344.09     
  1625.00        500.000        3345.07     
  1621.79        500.000        3346.05     
  1618.59        500.000        3347.02     
  1615.38        500.000        3347.98     
  1612.18        500.000        3348.90     
  1608.97        500.000        3349.81     
  1605.77        500.000        3350.70     
  1602.56        500.000        3351.49     
  1599.36        500.000        3350.96     
  1596.15        500.000        3350.44     
  1592.95        500.000        3349.96     
  1589.74        500.000        3349.49     
  1586.54        500.000        3349.26     
  1583.33        500.000        3349.03     
  1580.13        500.000        3348.82     
  1576.92        500.000        3348.63     
  1573.72        500.000        3348.44     
  1570.51        500.000        3348.27     
  1567.31        500.000        3348.11     
  1564.10        500.000        3347.96     
  1560.90        500.000        3347.97     
  1557.69        500.000        3347.98     
  1554.49        500.000        3348.00     
  1551.28        500.000        3348.03     
  1548.08        500.000        3348.06     
  1544.87        500.000        3348.10     
  1541.67        500.000        3348.14     
  1538.46        500.000        3348.19     
  1535.26        500.000        3348.31     
  1532.05        500.000        3348.43     
  1528.85        500.000        3348.55     
  1525.64        500.000        3348.68     
  1522.44        500.000        3348.81     
  1519.23        500.000        3348.95     
  1516.03        500.000        3349.09     
  1512.82        500.000        3349.24     
  1509.62        500.000        3349.41     
  1506.41        500.000        3349.58     
  1503.21        500.000        3349.76     
  1500.00        500.000        3349.94     
  1496.79        500.000        3350.12     
  1493.59        500.000        3350.31     
  1490.38        500.000        3350.50     
  1487.18        500.000        3350.69     
  1483.97        500.000        3350.89     
  1480.77        500.000        3351.10     
  1477.56        500.000        3351.30     
  1474.36        500.000        3351.51     
  1471.15        500.000        3351.71     
  1467.95        500.000        3351.90     
  1464.74        500.000        3352.10     
  1461.54        500.000        3352.30     
  1458.33        500.000        3352.57     
  1455.13        500.000        3352.84     
  1451.92        500.000        3353.12     
  1448.72        500.000        3353.39     
  1445.51        500.000        3353.70     
  1442.31        500.000        3354.01     
  1439.10        500.000        3353.94     
  1435.90        500.000        3352.10     
  1432.69        500.000        3352.55     
  1429.49        500.000        3353.00     
  1426.28        500.000        3353.44     
  1423.08        500.000        3353.89     
  1419.87        500.000        3354.34     
  1416.67        500.000        3354.78     
  1413.46        500.000        3355.23     
  1410.26        500.000        3345.32     
  1407.05        500.000        3345.76     
  1403.85        500.000        3346.20     
  1400.64        500.000        3346.64     
  1397.44        500.000        3347.08     
  1394.23        500.000        3347.52     
  1391.03        500.000        3347.96     
  1387.82        500.000        3348.40     
  1384.62        500.000        3343.52     
  1381.41        500.000        3343.95     
  1378.21        500.000        3344.39     
  1375.00        500.000        3344.82     
  1371.79        500.000        3345.26     
  1368.59        500.000        3345.69     
  1365.38        500.000        3346.13     
  1362.18        500.000        3346.56     
  1358.97        500.000        3343.21     
  1355.77        500.000        3343.64     
  1352.56        500.000        3344.08     
  1349.36        500.000        3344.51     
  1346.15        500.000        3344.94     
  1342.95        500.000        3345.37     
  1339.74        500.000        3345.80     
  1336.54        500.000        3346.23     
  1333.33        500.000        3343.59     
  1330.13        500.000        3344.02     
  1326.92        500.000        3344.45     
  1323.72        500.000        3344.87     
  1320.51        500.000        3345.30     
  1317.31        500.000        3345.73     
  1314.10        500.000        3346.16     
  1310.90        500.000        3346.58     
  1307.69        500.000        3344.40     
  1304.49        500.000        3344.82     
  1301.28        500.000        3344.66     
  1298.08        500.000        3337.98     
  1294.87        500.000        3338.36     
  1291.67        500.000        3338.78     
  1288.46        500.000        3339.20     
  1285.26        500.000        3339.62     
  1282.05        500.000        3339.87     
  1278.85        500.000        3340.29     
  1275.64        500.000        3340.71     
  1272.44        500.000        3341.13     
  1269.23        500.000        3341.55     
  1266.03        500.000        3341.97     
  1262.82        500.000        3342.39     
  1259.62        500.000        3342.81     
  1256.41        500.000        3342.89     
  1253.21        500.000        3343.31     
  1250.00        500.000        3343.73     
  1246.79        500.000        3344.15     
  1243.59        500.000        3344.57     
  1240.38        500.000        3344.99     
  1237.18        500.000        3345.41     
  1233.97        500.000        3345.82     
  1230.77        500.000        3345.93     
  1227.56        500.000        3346.35     
  1224.36        500.000        3346.77     
  1221.15        500.000        3347.18     
  1217.95        500.000        3347.60     
  1214.74        500.000        3348.01     
  1211.54        500.000        3348.43     
  1208.33        500.000        3348.85     
  1205.13        500.000        3348.98     
  1201.92        500.000        3349.39     
  1198.72        500.000        3349.81     
  1195.51        500.000        3350.22     
  1192.31        500.000        3350.64     
  1189.10        500.000        3351.05     
  1185.90        500.000        3351.47     
  1182.69        500.000        3351.88     
  1179.49        500.000        3352.04     
  1176.28        500.000        3352.45     
  1173.08        500.000        3352.87     
  1169.87        500.000        3353.28     
  1166.67        500.000        3353.69     
  1163.46        500.000        3354.10     
  1160.26        500.000        3354.51     
  1157.05        500.000        3354.93     
  1153.85        500.000        3355.11     
  1150.64        500.000        3355.52     
  1147.44        500.000        3355.93     
  1144.23        500.000        3356.34     
  1141.03        500.000        3356.75     
  1137.82        500.000        3357.16     
  1134.62        500.000        3357.57     
  1131.41        500.000        3357.98     
  1128.21        500.000        3358.19     
  1125.00        500.000        3358.60     
  1121.79        500.000        3359.01     
  1118.59        500.000        3359.42     
  1115.38        500.000        3359.83     
  1112.18        500.000        3360.24     
  1108.97        500.000        3360.64     
  1105.77        500.000        3361.05     
  1102.56        500.000        3361.29     
  1099.36        500.000        3361.69     
  1096.15        500.000        3362.10     
  1092.95        500.000        3362.51     
  1089.74        500.000        3362.91     
  1086.54        500.000        3363.32     
  1083.33        500.000        3363.72     
  1080.13        500.000        3364.13     
  1076.92        500.000        3364.39     
  1073.72        500.000        3364.80     
  1070.51        500.000        3365.20     
  1067.31        500.000        3365.60     
  1064.10        500.000        3365.95     
  1060.90        500.000        3366.34     
  1057.69        500.000        3366.73     
  1054.49        500.000        3367.12     
  1051.28        500.000        3367.51     
  1048.08        500.000        3367.91     
  1044.87        500.000        3368.31     
  1041.67        500.000        3368.72     
  1038.46        500.000        3369.12     
  1035.26        500.000        3369.52     
  1032.05        500.000        3369.92     
  1028.85        500.000        3370.33     
  1025.64        500.000        3370.61     
  1022.44        500.000        3371.01     
  1019.23        500.000        3371.41     
  1016.03        500.000        3371.82     
  1012.82        500.000        3372.22     
  1009.62        500.000        3372.62     
  1006.41        500.000        3373.02     
  1003.21        500.000        3373.42     
  1000.00        500.000        3373.72     
