|6.6.6
Archiving\03_Data\eq/QFM_m5/GRV/GRV_3.tab                                 
           1
T(K)    
  0.000000000000000E+000
  0.000000000000000E+000
           0
          10
T(K)           P(bar)         melt(TH)       pxmn           iron           Sp(TH)         O(HP)          Opx(TH)        Cpx(TH)        Cpx(TH)       
  2000.00        2500.00        97.9124       0.690124        1.39743                 NaN            NaN            NaN            NaN            NaN
  1996.79        2500.00        97.9012       0.690265        1.40857                 NaN            NaN            NaN            NaN            NaN
  1993.59        2500.00        97.8899       0.690406        1.41971                 NaN            NaN            NaN            NaN            NaN
  1990.38        2500.00        97.8786       0.690547        1.43086                 NaN            NaN            NaN            NaN            NaN
  1987.18        2500.00        97.8673       0.690689        1.44201                 NaN            NaN            NaN            NaN            NaN
  1983.97        2500.00        97.8560       0.690830        1.45316                 NaN            NaN            NaN            NaN            NaN
  1980.77        2500.00        97.8447       0.690971        1.46432                 NaN            NaN            NaN            NaN            NaN
  1977.56        2500.00        97.8334       0.691112        1.47548                 NaN            NaN            NaN            NaN            NaN
  1974.36        2500.00        97.8221       0.691254        1.48664                 NaN            NaN            NaN            NaN            NaN
  1971.15        2500.00        97.8112       0.691392        1.49740                 NaN            NaN            NaN            NaN            NaN
  1967.95        2500.00        97.8003       0.691531        1.50817                 NaN            NaN            NaN            NaN            NaN
  1964.74        2500.00        97.7894       0.691669        1.51894                 NaN            NaN            NaN            NaN            NaN
  1961.54        2500.00        97.7785       0.691808        1.52972                 NaN            NaN            NaN            NaN            NaN
  1958.33        2500.00        97.7676       0.691947        1.54050                 NaN            NaN            NaN            NaN            NaN
  1955.13        2500.00        97.7566       0.692085        1.55128                 NaN            NaN            NaN            NaN            NaN
  1951.92        2500.00        97.7457       0.692224        1.56206                 NaN            NaN            NaN            NaN            NaN
  1948.72        2500.00        97.7348       0.692362        1.57285                 NaN            NaN            NaN            NaN            NaN
  1945.51        2500.00        97.7243       0.692498        1.58324                 NaN            NaN            NaN            NaN            NaN
  1942.31        2500.00        97.7137       0.692635        1.59364                 NaN            NaN            NaN            NaN            NaN
  1939.10        2500.00        97.7032       0.692771        1.60404                 NaN            NaN            NaN            NaN            NaN
  1935.90        2500.00        97.6926       0.692907        1.61445                 NaN            NaN            NaN            NaN            NaN
  1932.69        2500.00        97.6821       0.693043        1.62486                 NaN            NaN            NaN            NaN            NaN
  1929.49        2500.00        97.6716       0.693179        1.63527                 NaN            NaN            NaN            NaN            NaN
  1926.28        2500.00        97.6610       0.693315        1.64568                 NaN            NaN            NaN            NaN            NaN
  1923.08        2500.00        97.6504       0.693451        1.65610                 NaN            NaN            NaN            NaN            NaN
  1919.87        2500.00        97.6403       0.693584        1.66613                 NaN            NaN            NaN            NaN            NaN
  1916.67        2500.00        97.6301       0.693718        1.67616                 NaN            NaN            NaN            NaN            NaN
  1913.46        2500.00        97.6200       0.693851        1.68620                 NaN            NaN            NaN            NaN            NaN
  1910.26        2500.00        97.6098       0.693985        1.69624                 NaN            NaN            NaN            NaN            NaN
  1907.05        2500.00        97.5996       0.694118        1.70628                 NaN            NaN            NaN            NaN            NaN
  1903.85        2500.00        97.5894       0.694252        1.71632                 NaN            NaN            NaN            NaN            NaN
  1900.64        2500.00        97.5792       0.694385        1.72637                 NaN            NaN            NaN            NaN            NaN
  1897.44        2500.00        97.5691       0.694519        1.73642                 NaN            NaN            NaN            NaN            NaN
  1894.23        2500.00        97.5593       0.694650        1.74609                 NaN            NaN            NaN            NaN            NaN
  1891.03        2500.00        97.5495       0.694781        1.75577                 NaN            NaN            NaN            NaN            NaN
  1887.82        2500.00        97.5396       0.694912        1.76545                 NaN            NaN            NaN            NaN            NaN
  1884.62        2500.00        97.5298       0.695043        1.77513                 NaN            NaN            NaN            NaN            NaN
  1881.41        2500.00        97.5200       0.695174        1.78481                 NaN            NaN            NaN            NaN            NaN
  1878.21        2500.00        97.5102       0.695305        1.79450                 NaN            NaN            NaN            NaN            NaN
  1875.00        2500.00        97.5004       0.695436        1.80419                 NaN            NaN            NaN            NaN            NaN
  1871.79        2500.00        97.4905       0.695567        1.81388                 NaN            NaN            NaN            NaN            NaN
  1868.59        2500.00        97.4811       0.695696        1.82320                 NaN            NaN            NaN            NaN            NaN
  1865.38        2500.00        97.4716       0.695825        1.83253                 NaN            NaN            NaN            NaN            NaN
  1862.18        2500.00        97.4622       0.695954        1.84185                 NaN            NaN            NaN            NaN            NaN
  1858.97        2500.00        97.4527       0.696082        1.85118                 NaN            NaN            NaN            NaN            NaN
  1855.77        2500.00        97.4433       0.696211        1.86051                 NaN            NaN            NaN            NaN            NaN
  1852.56        2500.00        97.4338       0.696340        1.86984                 NaN            NaN            NaN            NaN            NaN
  1849.36        2500.00        97.4244       0.696469        1.87918                 NaN            NaN            NaN            NaN            NaN
  1846.15        2500.00        97.4149       0.696597        1.88852                 NaN            NaN            NaN            NaN            NaN
  1842.95        2500.00        97.4058       0.696724        1.89748                 NaN            NaN            NaN            NaN            NaN
  1839.74        2500.00        97.3967       0.696850        1.90644                 NaN            NaN            NaN            NaN            NaN
  1836.54        2500.00        97.3876       0.696977        1.91541                 NaN            NaN            NaN            NaN            NaN
  1833.33        2500.00        97.3785       0.697103        1.92438                 NaN            NaN            NaN            NaN            NaN
  1830.13        2500.00        97.3694       0.697229        1.93335                 NaN            NaN            NaN            NaN            NaN
  1826.92        2500.00        97.3603       0.697356        1.94233                 NaN            NaN            NaN            NaN            NaN
  1823.72        2500.00        97.3512       0.697482        1.95131                 NaN            NaN            NaN            NaN            NaN
  1820.51        2500.00        97.3421       0.697608        1.96029                 NaN            NaN            NaN            NaN            NaN
  1817.31        2500.00        97.3333       0.697733        1.96892                 NaN            NaN            NaN            NaN            NaN
  1814.10        2500.00        97.3246       0.697857        1.97755                 NaN            NaN            NaN            NaN            NaN
  1810.90        2500.00        97.3158       0.697981        1.98619                 NaN            NaN            NaN            NaN            NaN
  1807.69        2500.00        97.3071       0.698105        1.99483                 NaN            NaN            NaN            NaN            NaN
  1804.49        2500.00        97.2983       0.698229        2.00347                 NaN            NaN            NaN            NaN            NaN
  1801.28        2500.00        97.2895       0.698354        2.01211                 NaN            NaN            NaN            NaN            NaN
  1798.08        2500.00        97.2808       0.698478        2.02076                 NaN            NaN            NaN            NaN            NaN
  1794.87        2500.00        97.2720       0.698602        2.02940                 NaN            NaN            NaN            NaN            NaN
  1791.67        2500.00        97.2635       0.698725        2.03778                 NaN            NaN            NaN            NaN            NaN
  1788.46        2500.00        97.2550       0.698847        2.04615                 NaN            NaN            NaN            NaN            NaN
  1785.26        2500.00        97.2381       0.698977        2.05370       0.919998E-002            NaN            NaN            NaN            NaN
  1782.05        2500.00        97.2172       0.699112        2.06109       0.225896E-001            NaN            NaN            NaN            NaN
  1778.85        2500.00        97.1975       0.699244        2.06814       0.351405E-001            NaN            NaN            NaN            NaN
  1775.64        2500.00        97.1777       0.699376        2.07518       0.476963E-001            NaN            NaN            NaN            NaN
  1772.44        2500.00        97.1580       0.699508        2.08223       0.602570E-001            NaN            NaN            NaN            NaN
  1769.23        2500.00        97.1383       0.699639        2.08928       0.728227E-001            NaN            NaN            NaN            NaN
  1766.03        2500.00        97.1189       0.699770        2.09623       0.850634E-001            NaN            NaN            NaN            NaN
  1762.82        2500.00        97.0996       0.699901        2.10318       0.973089E-001            NaN            NaN            NaN            NaN
  1759.62        2500.00        97.0803       0.700031        2.11013       0.109559                 NaN            NaN            NaN            NaN
  1756.41        2500.00        97.0609       0.700162        2.11708       0.121814                 NaN            NaN            NaN            NaN
  1753.21        2500.00        97.0420       0.700291        2.12392       0.133762                 NaN            NaN            NaN            NaN
  1750.00        2500.00        97.0231       0.700421        2.13076       0.145715                 NaN            NaN            NaN            NaN
  1746.79        2500.00        96.9518       0.700555        2.13580       0.157537       0.542967E-001            NaN            NaN            NaN
  1743.59        2500.00        96.3078       0.700741        2.12145       0.169972       0.700072                 NaN            NaN            NaN
  1740.38        2500.00        95.5724       0.700916        2.10096       0.182199        1.44356                 NaN            NaN            NaN
  1737.18        2500.00        94.8366       0.701089        2.08045       0.194432        2.18739                 NaN            NaN            NaN
  1733.97        2500.00        94.1006       0.701261        2.05994       0.206670        2.93155                 NaN            NaN            NaN
  1730.77        2500.00        93.3642       0.701430        2.03940       0.218914        3.67604                 NaN            NaN            NaN
  1727.56        2500.00        92.6275       0.701597        2.01886       0.231163        4.42085                 NaN            NaN            NaN
  1724.36        2500.00        91.8905       0.701761        1.99830       0.243417        5.16597                 NaN            NaN            NaN
  1721.15        2500.00        91.1533       0.701924        1.97772       0.255677        5.91140                 NaN            NaN            NaN
  1717.95        2500.00        90.4157       0.702084        1.95714       0.267941        6.65713                 NaN            NaN            NaN
  1714.74        2500.00        89.6370       0.702213        1.92900       0.279657        7.45214                 NaN            NaN            NaN
  1711.54        2500.00        88.8580       0.702339        1.90085       0.291376        8.24739                 NaN            NaN            NaN
  1708.33        2500.00        88.0789       0.702463        1.87268       0.303098        9.04287                 NaN            NaN            NaN
  1705.13        2500.00        87.2995       0.702584        1.84450       0.314823        9.83857                 NaN            NaN            NaN
  1701.92        2500.00        86.5200       0.702703        1.81630       0.326552        10.6345                 NaN            NaN            NaN
  1698.72        2500.00        85.7402       0.702819        1.78810       0.338283        11.4306                 NaN            NaN            NaN
  1695.51        2500.00        84.9603       0.702933        1.75988       0.350017        12.2269                 NaN            NaN            NaN
  1692.31        2500.00        84.1802       0.703044        1.73164       0.361754        13.0234                 NaN            NaN            NaN
  1689.10        2500.00        83.3843       0.703135        1.69903       0.373282        13.8403                 NaN            NaN            NaN
  1685.90        2500.00        82.0063       0.703805        1.67498       0.383996        14.5049       0.726043                 NaN            NaN
  1682.69        2500.00        79.4294       0.705730        1.67251       0.392051        14.7815        3.01879                 NaN            NaN
  1679.49        2500.00        76.8385       0.707663        1.67001       0.400149        15.0596        5.32402                 NaN            NaN
  1676.28        2500.00        74.6067       0.709332        1.66639       0.405847        15.2994        7.31226                 NaN            NaN
  1673.08        2500.00        72.3646       0.711007        1.66275       0.411571        15.5403        9.30980                 NaN            NaN
  1669.87        2500.00        70.1119       0.712688        1.65908       0.417321        15.7823        11.3167                 NaN            NaN
  1666.67        2500.00        67.8488       0.714374        1.65539       0.423096        16.0253        13.3330                 NaN            NaN
  1663.46        2500.00        66.1075       0.715681        1.64999       0.424990        16.2125        14.8894                 NaN            NaN
  1660.26        2500.00        64.3599       0.716991        1.64456       0.426889        16.4002        16.4514                 NaN            NaN
  1657.05        2500.00        62.6061       0.718305        1.63910       0.428794        16.5887        18.0191                 NaN            NaN
  1653.85        2500.00        60.8460       0.719621        1.63363       0.430706        16.7777        19.5924                 NaN            NaN
  1650.64        2500.00        59.0796       0.720940        1.62812       0.432623        16.9674        21.1713                 NaN            NaN
  1647.44        2500.00        57.3068       0.722262        1.62260       0.434546        17.1578        22.7560                 NaN            NaN
  1644.23        2500.00        55.5278       0.723587        1.61705       0.436475        17.3488        24.3463                 NaN            NaN
  1641.03        2500.00        53.7423       0.724914        1.61148       0.438410        17.5404        25.9424                 NaN            NaN
  1637.82        2500.00        52.3945       0.725928        1.60436       0.436008        17.6866        27.1527                 NaN            NaN
  1634.62        2500.00        51.0430       0.726944        1.59722       0.433598        17.8330        28.3662                 NaN            NaN
  1631.41        2500.00        49.6879       0.727961        1.59006       0.431181        17.9799        29.5830                 NaN            NaN
  1628.21        2500.00        48.3291       0.728980        1.58288       0.428756        18.1271        30.8032                 NaN            NaN
  1625.00        2500.00        46.9667       0.730000        1.57567       0.426324        18.2747        32.0266                 NaN            NaN
  1621.79        2500.00        45.6006       0.731021        1.56845       0.423884        18.4227        33.2534                 NaN            NaN
  1618.59        2500.00        44.2308       0.732044        1.56120       0.421436        18.5711        34.4835                 NaN            NaN
  1615.38        2500.00        42.8573       0.733069        1.55392       0.418981        18.7198        35.7169                 NaN            NaN
  1612.18        2500.00        41.7137       0.733937        1.54618       0.411294        18.8473        36.7476                 NaN            NaN
  1608.97        2500.00        40.5675       0.734806        1.53841       0.403588        18.9751        37.7806                 NaN            NaN
  1605.77        2500.00        39.4188       0.735676        1.53062       0.395864        19.1031        38.8160                 NaN            NaN
  1602.56        2500.00        38.2674       0.736547        1.52282       0.388120        19.2314        39.8537                 NaN            NaN
  1599.36        2500.00        37.1135       0.737419        1.51499       0.380358        19.3600        40.8937                 NaN            NaN
  1596.15        2500.00        35.9570       0.738292        1.50715       0.372576        19.4889        41.9361                 NaN            NaN
  1592.95        2500.00        34.7979       0.739166        1.49928       0.364776        19.6180        42.9809                 NaN            NaN
  1589.74        2500.00        33.6362       0.740041        1.49140       0.356956        19.7474        44.0280                 NaN            NaN
  1586.54        2500.00        32.5672       0.740857        1.48354       0.343852        19.8736        44.9909                 NaN            NaN
  1583.33        2500.00        31.4961       0.741675        1.47567       0.330718        20.0000        45.9558                 NaN            NaN
