|6.6.6
Archiving\03_Data\eqfracLP/QFM/EETA/EETA_6.tab                            
           1
T(K)    
  0.000000000000000E+000
  0.000000000000000E+000
           0
           3
T(K)           P(bar)         rho,kg/m3     
  1413.46        500.000        3304.52     
  1412.42        500.000        3305.49     
  1411.39        500.000        3306.69     
  1410.35        500.000        3307.96     
  1409.32        500.000        3308.86     
  1408.28        500.000        3308.91     
  1407.24        500.000        3310.53     
  1406.21        500.000        3311.92     
  1405.17        500.000        3313.08     
  1404.13        500.000        3313.95     
  1403.10        500.000        3315.14     
  1402.06        500.000        3316.09     
  1401.03        500.000        3317.16     
  1399.99        500.000        3318.33     
  1398.95        500.000        3319.23     
  1397.92        500.000        3320.48     
  1396.88        500.000        3321.07     
  1395.84        500.000        3322.33     
  1394.81        500.000        3248.67     
  1393.77        500.000        3149.29     
  1392.74        500.000        3150.41     
  1391.70        500.000        3151.61     
  1390.66        500.000        3152.84     
  1389.63        500.000        3153.98     
  1388.59        500.000        3155.10     
  1387.55        500.000        3156.40     
  1386.52        500.000        3157.58     
  1385.48        500.000        3158.71     
  1384.45        500.000        3159.78     
  1383.41        500.000        3161.23     
  1382.37        500.000        3148.90     
  1381.34        500.000        3163.77     
  1380.30        500.000        3164.96     
  1379.26        500.000        3166.02     
  1378.23        500.000        3167.18     
  1377.19        500.000        3168.55     
  1376.16        500.000        3169.71     
  1375.12        500.000        3172.88     
  1374.08        500.000        3185.31     
  1373.05        500.000        3186.98     
  1372.01        500.000        3188.71     
  1370.97        500.000        3190.22     
  1369.94        500.000        3192.60     
  1368.90        500.000        3193.90     
  1367.87        500.000        3195.07     
  1366.83        500.000        3196.72     
  1365.79        500.000        3198.34     
  1364.76        500.000        3200.13     
  1363.72        500.000        3201.89     
  1362.68        500.000        3203.22     
  1361.65        500.000        3205.10     
  1360.61        500.000        3206.44     
  1359.58        500.000        3208.26     
  1358.54        500.000        3209.54     
  1357.50        500.000        3211.67     
  1356.47        500.000        3213.43     
  1355.43        500.000        3215.20     
  1354.39        500.000        3216.65     
  1353.36        500.000        3218.38     
  1352.32        500.000        3219.72     
  1351.29        500.000        3221.93     
  1350.25        500.000        3225.16     
  1349.21        500.000        3233.88     
  1348.18        500.000        3237.83     
  1347.14        500.000        3242.89     
  1346.10        500.000        3248.65     
  1345.07        500.000        3254.92     
  1344.03        500.000        3263.30     
  1343.00        500.000        3275.15     
  1341.96        500.000        3283.16     
  1340.92        500.000        3293.83     
  1339.89        500.000        3307.29     
  1338.85        500.000        3338.64     
  1337.81        500.000        3324.87     
  1336.78        500.000        3334.34     
  1335.74        500.000        3342.08     
  1334.71        500.000        3347.36     
  1333.67        500.000        3353.46     
  1332.63        500.000        3355.36     
  1331.60        500.000        3358.62     
  1330.56        500.000        3360.68     
  1329.52        500.000        3362.43     
  1328.49        500.000        3364.13     
  1327.45        500.000        3365.22     
  1326.42        500.000        3366.25     
  1325.38        500.000        3367.32     
  1324.34        500.000        3367.98     
  1323.31        500.000        3368.78     
  1322.27        500.000        3369.22     
  1321.23        500.000        3370.16     
  1320.20        500.000        3370.70     
  1319.16        500.000        3370.96     
  1318.13        500.000        3371.46     
  1317.09        500.000        3371.83     
  1316.05        500.000        3372.26     
  1315.02        500.000        3372.67     
  1313.98        500.000        3373.02     
  1312.94        500.000        3373.16     
  1311.91        500.000        3373.73     
  1310.87        500.000        3374.06     
  1309.84        500.000        3374.20     
  1308.80        500.000        3374.46     
  1307.76        500.000        3374.61     
  1306.73        500.000        3374.97     
  1305.69        500.000        3375.28     
  1304.65        500.000        3375.43     
  1303.62        500.000        3375.11     
  1302.58        500.000        3376.22     
  1301.55        500.000        3375.86     
  1300.51        500.000        3375.95     
  1299.47        500.000        3376.17     
  1298.44        500.000        3376.24     
  1297.40        500.000        3376.25     
  1296.36        500.000        3376.42     
  1295.33        500.000        3376.45     
  1294.29        500.000        3376.19     
  1293.26        500.000        3376.58     
  1292.22        500.000        3376.42     
  1291.18        500.000        3376.51     
  1290.15        500.000        3376.51     
  1289.11        500.000        3376.43     
  1288.07        500.000        3376.12     
  1287.04        500.000        3376.42     
  1286.00        500.000        3376.23     
  1284.97        500.000        3376.06     
  1283.93        500.000        3376.11     
  1282.89        500.000        3375.92     
  1281.86        500.000        3375.90     
  1280.82        500.000        3375.69     
  1279.78        500.000        3375.53     
  1278.75        500.000        3375.21     
  1277.71        500.000        3375.21     
  1276.68        500.000        3374.97     
  1275.64        500.000        3374.65     
  1274.60        500.000        3374.41     
  1273.57        500.000        3374.15     
  1272.53        500.000        3373.89     
  1271.50        500.000        2891.58     
  1270.46        500.000        2848.64     
  1269.42        500.000        2849.56     
  1268.39        500.000        2850.46     
  1267.35        500.000        2851.37     
  1266.31        500.000        2852.16     
  1265.28        500.000        2852.97     
  1264.24        500.000        2853.81     
  1263.21        500.000        2854.49     
  1262.17        500.000        2855.03     
  1261.13        500.000        2855.91     
  1260.10        500.000        2856.47     
  1259.06        500.000        2857.01     
  1258.02        500.000        2857.52     
  1256.99        500.000        2858.02     
  1255.95        500.000        2858.43     
  1254.92        500.000        2858.80     
  1253.88        500.000        2859.09     
  1252.84        500.000        2859.35     
  1251.81        500.000        2859.55     
  1250.77        500.000        2859.64     
  1249.73        500.000        2859.71     
  1248.70        500.000        2859.74     
  1247.66        500.000        2859.63     
  1246.63        500.000        2860.94     
  1245.59        500.000        2859.85     
  1244.55        500.000        2848.34     
  1243.52        500.000        2848.16     
  1242.48        500.000        2848.12     
  1241.44        500.000        2848.36     
  1240.41        500.000        2848.29     
  1239.37        500.000        2848.12     
  1238.34        500.000        2848.09     
  1237.30        500.000        2829.62     
  1236.26        500.000        2890.05     
  1235.23        500.000        2848.58     
  1234.19        500.000        2848.89     
  1233.15        500.000        2845.73     
  1232.12        500.000        2846.45     
  1231.08        500.000        2845.63     
  1230.05        500.000        2846.85     
  1229.01        500.000        2845.48     
  1227.97        500.000        2833.31     
  1226.94        500.000        2848.36     
  1225.90        500.000        2856.45     
  1224.86        500.000        2842.92     
  1223.83        500.000        2861.52     
  1222.79        500.000        2842.91     
  1221.76        500.000        2841.07     
  1220.72        500.000        2840.71     
  1219.68        500.000        2784.87     
  1218.65        500.000        3211.73     
  1217.61        500.000        2879.86     
  1216.57        500.000        2847.11     
  1215.54        500.000        2817.54     
  1214.50        500.000        2766.97     
  1213.47        500.000        2845.03     
  1212.43        500.000        2801.92     
  1211.39        500.000        2821.79     
  1210.36        500.000        2845.67     
  1209.32        500.000        2908.79     
  1208.28        500.000        2902.56     
  1207.25        500.000        2839.62     
  1206.21        500.000        2671.79     
  1205.18        500.000        2810.15     
  1204.14        500.000        2595.86     
  1203.10        500.000        2665.54     
  1202.07        500.000        2663.70     
  1201.03        500.000        2423.12     
  1199.99        500.000        2423.20     
  1198.96        500.000        2423.27     
  1197.92        500.000        2666.12     
  1196.89        500.000        2660.75     
  1195.85        500.000        2655.41     
  1194.81        500.000        2661.72     
  1193.78        500.000        2657.99     
  1192.74        500.000        2654.54     
  1191.70        500.000        2652.09     
  1190.67        500.000        2637.80     
  1189.63        500.000        2643.76     
  1188.60        500.000        2646.66     
  1187.56        500.000        2632.52     
  1186.52        500.000        2623.50     
  1185.49        500.000        2620.52     
  1184.45        500.000        2620.56     
  1183.41        500.000        2620.61     
  1182.38        500.000        2620.66     
  1181.34        500.000        2620.70     
  1180.31        500.000        2620.75     
  1179.27        500.000        2620.81     
  1178.23        500.000        2620.86     
  1177.20        500.000        2620.91     
  1176.16        500.000        2620.98     
  1175.12        500.000        2621.01     
  1174.09        500.000        2621.05     
  1173.05        500.000        2621.10     
  1172.02        500.000        2621.16     
  1170.98        500.000        2621.21     
  1169.94        500.000        2621.26     
  1168.91        500.000        2621.32     
  1167.87        500.000        2621.37     
  1166.83        500.000        2621.41     
  1165.80        500.000        2621.46     
  1164.76        500.000        2621.51     
  1163.73        500.000        2621.40     
  1162.69        500.000        2621.61     
  1161.65        500.000        2621.66     
  1160.62        500.000        2621.71     
  1159.58        500.000        2621.75     
  1158.54        500.000        2621.80     
  1157.51        500.000        2621.85     
  1156.47        500.000        2621.90     
  1155.44        500.000        2621.94     
  1154.40        500.000        2621.99     
  1153.36        500.000        2622.03     
  1152.33        500.000        2622.08     
  1151.29        500.000        2622.13     
  1150.25        500.000        2622.18     
  1149.22        500.000        2622.22     
  1148.18        500.000        2622.27     
  1147.15        500.000        2622.32     
  1146.11        500.000        2622.36     
  1145.07        500.000        2622.41     
  1144.04        500.000        2622.46     
  1143.00        500.000        2622.50     
  1141.96        500.000        2622.55     
  1140.93        500.000        2622.60     
  1139.89        500.000        2622.64     
  1138.86        500.000        2622.69     
  1137.82        500.000        2622.79     
  1136.78        500.000        2622.84     
  1135.75        500.000        2622.89     
  1134.71        500.000        2622.94     
  1133.68        500.000        2622.98     
  1132.64        500.000        2622.93     
  1131.60        500.000        2623.08     
  1130.57        500.000        2623.10     
  1129.53        500.000        2623.15     
  1128.49        500.000        2623.20     
  1127.46        500.000        2623.24     
  1126.42        500.000        2623.29     
  1125.39        500.000        2623.34     
  1124.35        500.000        2623.39     
  1123.31        500.000        2623.44     
  1122.28        500.000        2623.50     
  1121.24        500.000        2623.54     
  1120.20        500.000        2623.59     
  1119.17        500.000        2623.64     
  1118.13        500.000        2623.69     
  1117.10        500.000        2623.74     
  1116.06        500.000        2623.78     
  1115.02        500.000        2623.82     
  1113.99        500.000        2623.88     
  1112.95        500.000        2623.92     
  1111.91        500.000        2624.01     
  1110.88        500.000        2624.05     
  1109.84        500.000        2624.09     
  1108.81        500.000        2624.16     
  1107.77        500.000        2624.21     
  1106.73        500.000        2624.26     
  1105.70        500.000        2624.31     
  1104.66        500.000        2624.35     
  1103.62        500.000        2624.40     
  1102.59        500.000        2624.44     
  1101.55        500.000        2624.49     
  1100.52        500.000        2624.54     
  1099.48        500.000        2624.58     
  1098.44        500.000        2624.56     
  1097.41        500.000        2624.60     
  1096.37        500.000        2624.65     
  1095.33        500.000        2624.69     
  1094.30        500.000        2624.74     
  1093.26        500.000        2624.78     
  1092.23        500.000        2624.83     
  1091.19        500.000        2624.82     
  1090.15        500.000        2624.84     
  1089.12        500.000        2624.88     
  1088.08        500.000        2624.94     
  1087.04        500.000        2625.06     
  1086.01        500.000        2625.10     
  1084.97        500.000        2625.07     
  1083.94        500.000        2625.11     
  1082.90        500.000        2625.19     
  1081.86        500.000        2625.23     
  1080.83        500.000        2625.28     
  1079.79        500.000        2625.34     
  1078.75        500.000        2625.38     
  1077.72        500.000        2625.42     
  1076.68        500.000        2625.46     
  1075.65        500.000        2625.52     
  1074.61        500.000        2625.56     
  1073.57        500.000        2625.61     
  1072.54        500.000        2625.64     
  1071.50        500.000        2625.72     
  1070.46        500.000        2625.76     
  1069.43        500.000        2625.81     
  1068.39        500.000        2625.70     
  1067.36        500.000        2625.87     
  1066.32        500.000        2625.93     
  1065.28        500.000        2625.97     
  1064.25        500.000        2626.01     
  1063.21        500.000        2626.06     
  1062.17        500.000        2626.08     
  1061.14        500.000        2626.13     
  1060.10        500.000        2626.17     
  1059.07        500.000        2626.22     
  1058.03        500.000        2626.26     
  1056.99        500.000        2626.31     
  1055.96        500.000        2626.37     
  1054.92        500.000        2626.40     
  1053.88        500.000        2626.44     
  1052.85        500.000        2626.49     
  1051.81        500.000        2626.53     
  1050.78        500.000        2626.58     
  1049.74        500.000        2626.58     
  1048.70        500.000        2626.63     
  1047.67        500.000        2626.68     
  1046.63        500.000        2626.75     
  1045.59        500.000        2626.79     
  1044.56        500.000        2626.83     
  1043.52        500.000        2626.87     
  1042.49        500.000        2626.90     
  1041.45        500.000        2626.94     
  1040.41        500.000        2626.85     
  1039.38        500.000        2627.04     
  1038.34        500.000        2626.94     
  1037.30        500.000        2627.12     
  1036.27        500.000        2627.17     
  1035.23        500.000        2627.21     
  1034.20        500.000        2627.11     
  1033.16        500.000        2627.29     
  1032.12        500.000        2627.19     
  1031.09        500.000        2627.28     
  1030.05        500.000        2627.32     
  1029.01        500.000        2627.45     
  1027.98        500.000        2627.50     
  1026.94        500.000        2627.43     
  1025.91        500.000        2627.58     
  1024.87        500.000        2627.62     
  1023.83        500.000        2627.66     
  1022.80        500.000        2627.70     
  1021.76        500.000        2627.75     
  1020.72        500.000        2627.78     
  1019.69        500.000        2627.83     
  1018.65        500.000        2627.87     
  1017.62        500.000        2627.83     
  1016.58        500.000        2627.88     
  1015.54        500.000        2627.92     
  1014.51        500.000        2628.02     
  1013.47        500.000        2628.05     
  1012.43        500.000        2628.08     
  1011.40        500.000        2628.12     
  1010.36        500.000        2628.16     
  1009.33        500.000        2628.21     
  1008.29        500.000        2628.25     
  1007.25        500.000        2628.29     
  1006.22        500.000        2628.35     
  1005.18        500.000        2628.42     
  1004.14        500.000        2628.42     
  1003.11        500.000        2628.47     
  1002.07        500.000        2628.51     
  1001.04        500.000        2628.53     
  1000.00        500.000        2628.59     
