|6.6.6
Archiving\03_Data\DeqLP/QFM_m3.5/YM20/YM20_6.tab                        
           1
T(K)    
  0.000000000000000E+000
  0.000000000000000E+000
           0
           3
T(K)           P(bar)         rho,kg/m3     
  2000.00        500.000        8099.88     
  1996.79        500.000        8101.72     
  1993.59        500.000        8103.55     
  1990.38        500.000        8105.38     
  1987.18        500.000        8107.21     
  1983.97        500.000        8109.03     
  1980.77        500.000        8110.86     
  1977.56        500.000        8112.68     
  1974.36        500.000        8114.50     
  1971.15        500.000        8116.32     
  1967.95        500.000        8118.14     
  1964.74        500.000        8119.96     
  1961.54        500.000        8121.78     
  1958.33        500.000        8123.59     
  1955.13        500.000        8125.41     
  1951.92        500.000        8127.22     
  1948.72        500.000        8129.03     
  1945.51        500.000        8130.84     
  1942.31        500.000        8132.64     
  1939.10        500.000        8134.45     
  1935.90        500.000        8136.25     
  1932.69        500.000        8138.06     
  1929.49        500.000        8139.86     
  1926.28        500.000        8141.66     
  1923.08        500.000        8143.46     
  1919.87        500.000        8145.25     
  1916.67        500.000        8147.05     
  1913.46        500.000        3250.26     
  1910.26        500.000        3193.89     
  1907.05        500.000        3180.11     
  1903.85        500.000        3173.58     
  1900.64        500.000        3169.90     
  1897.44        500.000        3167.62     
  1894.23        500.000        3167.85     
  1891.03        500.000        3168.13     
  1887.82        500.000        3168.46     
  1884.62        500.000        3168.81     
  1881.41        500.000        3171.26     
  1878.21        500.000        3174.00     
  1875.00        500.000        3176.87     
  1871.79        500.000        3180.93     
  1868.59        500.000        3183.77     
  1865.38        500.000        3186.36     
  1862.18        500.000        3188.72     
  1858.97        500.000        3190.90     
  1855.77        500.000        3192.92     
  1852.56        500.000        3194.81     
  1849.36        500.000        3196.57     
  1846.15        500.000        3198.23     
  1842.95        500.000        3200.74     
  1839.74        500.000        3203.10     
  1836.54        500.000        3205.33     
  1833.33        500.000        3207.44     
  1830.13        500.000        3209.45     
  1826.92        500.000        3211.35     
  1823.72        500.000        3213.17     
  1820.51        500.000        3214.91     
  1817.31        500.000        3217.18     
  1814.10        500.000        3219.34     
  1810.90        500.000        3221.42     
  1807.69        500.000        3223.42     
  1804.49        500.000        3225.34     
  1801.28        500.000        3227.19     
  1798.08        500.000        3228.97     
  1794.87        500.000        3230.70     
  1791.67        500.000        3232.71     
  1788.46        500.000        3234.67     
  1785.26        500.000        3236.55     
  1782.05        500.000        3238.39     
  1778.85        500.000        3240.16     
  1775.64        500.000        3241.89     
  1772.44        500.000        3243.57     
  1769.23        500.000        3245.20     
  1766.03        500.000        3247.03     
  1762.82        500.000        3248.82     
  1759.62        500.000        3250.56     
  1756.41        500.000        3252.26     
  1753.21        500.000        3253.91     
  1750.00        500.000        3255.53     
  1746.79        500.000        3257.11     
  1743.59        500.000        3258.66     
  1740.38        500.000        3260.30     
  1737.18        500.000        3261.91     
  1733.97        500.000        3263.49     
  1730.77        500.000        3265.03     
  1727.56        500.000        3266.54     
  1724.36        500.000        3268.03     
  1721.15        500.000        3269.48     
  1717.95        500.000        3270.91     
  1714.74        500.000        3272.36     
  1711.54        500.000        3273.78     
  1708.33        500.000        3275.18     
  1705.13        500.000        3276.56     
  1701.92        500.000        3277.91     
  1698.72        500.000        3279.24     
  1695.51        500.000        3280.55     
  1692.31        500.000        3281.85     
  1689.10        500.000        3283.11     
  1685.90        500.000        3284.35     
  1682.69        500.000        3285.57     
  1679.49        500.000        3286.78     
  1676.28        500.000        3287.97     
  1673.08        500.000        3289.15     
  1669.87        500.000        3290.31     
  1666.67        500.000        3291.46     
  1663.46        500.000        3292.55     
  1660.26        500.000        3293.62     
  1657.05        500.000        3294.68     
  1653.85        500.000        3295.72     
  1650.64        500.000        3296.76     
  1647.44        500.000        3297.79     
  1644.23        500.000        3298.81     
  1641.03        500.000        3299.81     
  1637.82        500.000        3300.76     
  1634.62        500.000        3301.69     
  1631.41        500.000        3302.62     
  1628.21        500.000        3303.53     
  1625.00        500.000        3304.45     
  1621.79        500.000        3305.35     
  1618.59        500.000        3306.25     
  1615.38        500.000        3307.14     
  1612.18        500.000        3306.31     
  1608.97        500.000        3305.23     
  1605.77        500.000        3304.31     
  1602.56        500.000        3303.44     
  1599.36        500.000        3302.80     
  1596.15        500.000        3302.19     
  1592.95        500.000        3301.61     
  1589.74        500.000        3301.06     
  1586.54        500.000        3300.77     
  1583.33        500.000        3300.50     
  1580.13        500.000        3300.25     
  1576.92        500.000        3300.01     
  1573.72        500.000        3299.79     
  1570.51        500.000        3299.58     
  1567.31        500.000        3299.39     
  1564.10        500.000        3299.22     
  1560.90        500.000        3299.21     
  1557.69        500.000        3299.21     
  1554.49        500.000        3299.22     
  1551.28        500.000        3299.23     
  1548.08        500.000        3299.26     
  1544.87        500.000        3299.29     
  1541.67        500.000        3299.32     
  1538.46        500.000        3299.37     
  1535.26        500.000        3299.49     
  1532.05        500.000        3299.62     
  1528.85        500.000        3299.76     
  1525.64        500.000        3299.90     
  1522.44        500.000        3300.04     
  1519.23        500.000        3300.19     
  1516.03        500.000        3300.34     
  1512.82        500.000        3300.50     
  1509.62        500.000        3300.69     
  1506.41        500.000        3300.89     
  1503.21        500.000        3301.09     
  1500.00        500.000        3301.29     
  1496.79        500.000        3301.50     
  1493.59        500.000        3301.71     
  1490.38        500.000        3301.93     
  1487.18        500.000        3302.15     
  1483.97        500.000        3302.38     
  1480.77        500.000        3302.62     
  1477.56        500.000        3302.85     
  1474.36        500.000        3303.10     
  1471.15        500.000        3303.45     
  1467.95        500.000        3303.79     
  1464.74        500.000        3304.14     
  1461.54        500.000        3304.49     
  1458.33        500.000        3304.89     
  1455.13        500.000        3305.28     
  1451.92        500.000        3305.68     
  1448.72        500.000        3305.92     
  1445.51        500.000        3303.80     
  1442.31        500.000        3302.03     
  1439.10        500.000        3302.47     
  1435.90        500.000        3299.43     
  1432.69        500.000        3299.87     
  1429.49        500.000        3300.31     
  1426.28        500.000        3300.74     
  1423.08        500.000        3301.18     
  1419.87        500.000        3301.62     
  1416.67        500.000        3302.06     
  1413.46        500.000        3302.49     
  1410.26        500.000        3294.83     
  1407.05        500.000        3295.27     
  1403.85        500.000        3295.70     
  1400.64        500.000        3296.13     
  1397.44        500.000        3296.56     
  1394.23        500.000        3296.99     
  1391.03        500.000        3297.42     
  1387.82        500.000        3297.85     
  1384.62        500.000        3293.55     
  1381.41        500.000        3293.97     
  1378.21        500.000        3294.40     
  1375.00        500.000        3294.83     
  1371.79        500.000        3295.25     
  1368.59        500.000        3295.68     
  1365.38        500.000        3296.11     
  1362.18        500.000        3296.53     
  1358.97        500.000        3293.35     
  1355.77        500.000        3293.77     
  1352.56        500.000        3294.19     
  1349.36        500.000        3294.62     
  1346.15        500.000        3295.04     
  1342.95        500.000        3295.46     
  1339.74        500.000        3295.88     
  1336.54        500.000        3296.31     
  1333.33        500.000        3293.67     
  1330.13        500.000        3294.09     
  1326.92        500.000        3294.51     
  1323.72        500.000        3294.92     
  1320.51        500.000        3295.34     
  1317.31        500.000        3295.76     
  1314.10        500.000        3296.18     
  1310.90        500.000        3296.60     
  1307.69        500.000        3294.34     
  1304.49        500.000        3294.45     
  1301.28        500.000        3294.19     
  1298.08        500.000        3289.49     
  1294.87        500.000        3289.85     
  1291.67        500.000        3290.26     
  1288.46        500.000        3290.67     
  1285.26        500.000        3291.09     
  1282.05        500.000        3291.29     
  1278.85        500.000        3291.70     
  1275.64        500.000        3292.11     
  1272.44        500.000        3292.52     
  1269.23        500.000        3292.94     
  1266.03        500.000        3293.35     
  1262.82        500.000        3293.76     
  1259.62        500.000        3294.17     
  1256.41        500.000        3294.18     
  1253.21        500.000        3294.59     
  1250.00        500.000        3295.00     
  1246.79        500.000        3295.41     
  1243.59        500.000        3295.82     
  1240.38        500.000        3296.23     
  1237.18        500.000        3296.64     
  1233.97        500.000        3297.05     
  1230.77        500.000        3297.08     
  1227.56        500.000        3297.49     
  1224.36        500.000        3297.90     
  1221.15        500.000        3298.31     
  1217.95        500.000        3298.71     
  1214.74        500.000        3299.12     
  1211.54        500.000        3299.53     
  1208.33        500.000        3299.93     
  1205.13        500.000        3300.00     
  1201.92        500.000        3300.40     
  1198.72        500.000        3300.81     
  1195.51        500.000        3301.22     
  1192.31        500.000        3301.62     
  1189.10        500.000        3302.02     
  1185.90        500.000        3302.43     
  1182.69        500.000        3302.83     
  1179.49        500.000        3302.93     
  1176.28        500.000        3303.33     
  1173.08        500.000        3303.74     
  1169.87        500.000        3304.14     
  1166.67        500.000        3304.54     
  1163.46        500.000        3304.94     
  1160.26        500.000        3305.35     
  1157.05        500.000        3305.75     
  1153.85        500.000        3305.87     
  1150.64        500.000        3306.27     
  1147.44        500.000        3306.67     
  1144.23        500.000        3307.07     
  1141.03        500.000        3307.47     
  1137.82        500.000        3307.87     
  1134.62        500.000        3308.27     
  1131.41        500.000        3308.67     
  1128.21        500.000        3308.83     
  1125.00        500.000        3309.22     
  1121.79        500.000        3309.62     
  1118.59        500.000        3310.02     
  1115.38        500.000        3310.42     
  1112.18        500.000        3310.82     
  1108.97        500.000        3311.22     
  1105.77        500.000        3311.61     
  1102.56        500.000        3311.79     
  1099.36        500.000        3312.19     
  1096.15        500.000        3312.59     
  1092.95        500.000        3312.98     
  1089.74        500.000        3313.38     
  1086.54        500.000        3313.78     
  1083.33        500.000        3314.17     
  1080.13        500.000        3314.57     
  1076.92        500.000        3314.78     
  1073.72        500.000        3315.17     
  1070.51        500.000        3315.53     
  1067.31        500.000        3315.90     
  1064.10        500.000        3316.28     
  1060.90        500.000        3316.65     
  1057.69        500.000        3317.03     
  1054.49        500.000        3317.42     
  1051.28        500.000        3317.77     
  1048.08        500.000        3318.16     
  1044.87        500.000        3318.56     
  1041.67        500.000        3318.95     
  1038.46        500.000        3319.34     
  1035.26        500.000        3319.73     
  1032.05        500.000        3320.13     
  1028.85        500.000        3320.52     
  1025.64        500.000        3320.76     
  1022.44        500.000        3321.15     
  1019.23        500.000        3321.54     
  1016.03        500.000        3321.93     
  1012.82        500.000        3322.32     
  1009.62        500.000        3322.71     
  1006.41        500.000        3323.10     
  1003.21        500.000        3323.49     
  1000.00        500.000        3323.75     
