|6.6.6
Archiving\03_Data\Deqfrac/QFM_m2.5/T13/T13_6.tab                      
           1
T(K)    
  0.000000000000000E+000
  0.000000000000000E+000
           0
           3
T(K)           P(bar)         rho,kg/m3     
  1631.41        2500.00        3240.59     
  1629.83        2500.00        3254.04     
  1628.25        2500.00        3254.02     
  1626.66        2500.00        3254.63     
  1625.08        2500.00        3255.30     
  1623.50        2500.00        3256.04     
  1621.92        2500.00        3256.63     
  1620.33        2500.00        3257.84     
  1618.75        2500.00        3259.24     
  1617.17        2500.00        3258.99     
  1615.59        2500.00        3259.43     
  1614.00        2500.00        3260.15     
  1612.42        2500.00        3261.19     
  1610.84        2500.00        3261.33     
  1609.26        2500.00        3261.89     
  1607.67        2500.00        3262.25     
  1606.09        2500.00        3263.27     
  1604.51        2500.00        3264.77     
  1602.93        2500.00        3264.40     
  1601.34        2500.00        3265.19     
  1599.76        2500.00        3266.28     
  1598.18        2500.00        3267.00     
  1596.60        2500.00        3266.98     
  1595.01        2500.00        3267.77     
  1593.43        2500.00        3268.77     
  1591.85        2500.00        3269.16     
  1590.27        2500.00        3269.40     
  1588.68        2500.00        3270.68     
  1587.10        2500.00        3271.11     
  1585.52        2500.00        3272.11     
  1583.94        2500.00        3272.58     
  1582.35        2500.00        3273.05     
  1580.77        2500.00        3272.90     
  1579.19        2500.00        3274.93     
  1577.61        2500.00        3275.12     
  1576.02        2500.00        3277.07     
  1574.44        2500.00        3276.42     
  1572.86        2500.00        3275.22     
  1571.28        2500.00        3277.84     
  1569.69        2500.00        3278.47     
  1568.11        2500.00        3278.60     
  1566.53        2500.00        3279.67     
  1564.95        2500.00        3280.04     
  1563.36        2500.00        3280.67     
  1561.78        2500.00        3281.29     
  1560.20        2500.00        3281.93     
  1558.62        2500.00        3282.23     
  1557.03        2500.00        3283.04     
  1555.45        2500.00        3283.95     
  1553.87        2500.00        3284.41     
  1552.29        2500.00        3284.93     
  1550.70        2500.00        3285.85     
  1549.12        2500.00        3285.86     
  1547.54        2500.00        3287.31     
  1545.96        2500.00        3287.08     
  1544.37        2500.00        3287.87     
  1542.79        2500.00        3288.42     
  1541.21        2500.00        3289.25     
  1539.63        2500.00        3289.56     
  1538.04        2500.00        3290.26     
  1536.46        2500.00        3290.61     
  1534.88        2500.00        3291.68     
  1533.30        2500.00        3292.27     
  1531.71        2500.00        3291.97     
  1530.13        2500.00        3296.26     
  1528.55        2500.00        3292.50     
  1526.97        2500.00        3294.41     
  1525.38        2500.00        3285.88     
  1523.80        2500.00        3427.13     
  1522.22        2500.00        3295.39     
  1520.64        2500.00        3297.13     
  1519.05        2500.00        3297.36     
  1517.47        2500.00        3432.90     
  1515.89        2500.00        3296.43     
  1514.31        2500.00        3298.46     
  1512.72        2500.00        3299.90     
  1511.14        2500.00        3278.55     
  1509.56        2500.00        3278.77     
  1507.98        2500.00        3277.28     
  1506.39        2500.00        3279.31     
  1504.81        2500.00        3281.07     
  1503.23        2500.00        3281.27     
  1501.65        2500.00        3282.72     
  1500.06        2500.00        3282.88     
  1498.48        2500.00        3284.06     
  1496.90        2500.00        3285.23     
  1495.32        2500.00        3286.34     
  1493.73        2500.00        3286.49     
  1492.15        2500.00        3281.64     
  1490.57        2500.00        3270.34     
  1488.99        2500.00        3272.04     
  1487.40        2500.00        3273.11     
  1485.82        2500.00        3274.42     
  1484.24        2500.00        3275.83     
  1482.66        2500.00        3277.11     
  1481.07        2500.00        3278.65     
  1479.49        2500.00        3279.95     
  1477.91        2500.00        3281.67     
  1476.33        2500.00        3283.02     
  1474.74        2500.00        3284.13     
  1473.16        2500.00        3285.73     
  1471.58        2500.00        3286.69     
  1470.00        2500.00        3289.93     
  1468.41        2500.00        3295.62     
  1466.83        2500.00        3297.81     
  1465.25        2500.00        3299.06     
  1463.67        2500.00        3300.03     
  1462.08        2500.00        3301.66     
  1460.50        2500.00        3303.18     
  1458.92        2500.00        3304.52     
  1457.34        2500.00        3305.93     
  1455.75        2500.00        3307.22     
  1454.17        2500.00        3308.24     
  1452.59        2500.00        3310.06     
  1451.01        2500.00        3311.38     
  1449.42        2500.00        3312.43     
  1447.84        2500.00        3141.74     
  1446.26        2500.00        3130.07     
  1444.68        2500.00        3132.72     
  1443.09        2500.00        3135.10     
  1441.51        2500.00        3137.55     
  1439.93        2500.00        3139.75     
  1438.35        2500.00        3142.47     
  1436.76        2500.00        3145.00     
  1435.18        2500.00        3147.24     
  1433.60        2500.00        3149.88     
  1432.02        2500.00        3152.01     
  1430.43        2500.00        3154.92     
  1428.85        2500.00        3157.31     
  1427.27        2500.00        3159.64     
  1425.69        2500.00        3162.36     
  1424.10        2500.00        3164.75     
  1422.52        2500.00        3167.22     
  1420.94        2500.00        3169.85     
  1419.36        2500.00        3172.30     
  1417.78        2500.00        3174.86     
  1416.19        2500.00        3177.52     
  1414.61        2500.00        3180.03     
  1413.03        2500.00        3182.45     
  1411.45        2500.00        3185.17     
  1409.86        2500.00        3187.75     
  1408.28        2500.00        3190.34     
  1406.70        2500.00        3192.84     
  1405.12        2500.00        3194.92     
  1403.53        2500.00        3198.55     
  1401.95        2500.00        3200.49     
  1400.37        2500.00        3203.19     
  1398.79        2500.00        3205.60     
  1397.20        2500.00        3208.12     
  1395.62        2500.00        3210.10     
  1394.04        2500.00        3213.71     
  1392.46        2500.00        3216.18     
  1390.87        2500.00        3218.25     
  1389.29        2500.00        3221.01     
  1387.71        2500.00        3223.53     
  1386.13        2500.00        3226.16     
  1384.54        2500.00        3228.55     
  1382.96        2500.00        3228.41     
  1381.38        2500.00        3233.11     
  1379.80        2500.00        3235.31     
  1378.21        2500.00        3237.82     
  1376.63        2500.00        3239.95     
  1375.05        2500.00        3242.44     
  1373.47        2500.00        3244.51     
  1371.88        2500.00        3246.34     
  1370.30        2500.00        3248.33     
  1368.72        2500.00        3251.31     
  1367.14        2500.00        3252.90     
  1365.55        2500.00        3255.47     
  1363.97        2500.00        3257.58     
  1362.39        2500.00        3259.22     
  1360.81        2500.00        3261.84     
  1359.22        2500.00        3263.70     
  1357.64        2500.00        3266.40     
  1356.06        2500.00        3266.26     
  1354.48        2500.00        3270.42     
  1352.89        2500.00        3272.15     
  1351.31        2500.00        3273.93     
  1349.73        2500.00        3275.84     
  1348.15        2500.00        3277.74     
  1346.56        2500.00        3279.56     
  1344.98        2500.00        3280.87     
  1343.40        2500.00        3283.80     
  1341.82        2500.00        3285.45     
  1340.23        2500.00        3287.01     
  1338.65        2500.00        3288.65     
  1337.07        2500.00        3290.50     
  1335.49        2500.00        3292.67     
  1333.90        2500.00        3293.42     
  1332.32        2500.00        3294.08     
  1330.74        2500.00        3296.85     
  1329.16        2500.00        3297.58     
  1327.57        2500.00        3299.03     
  1325.99        2500.00        3300.84     
  1324.41        2500.00        3302.75     
  1322.83        2500.00        3303.18     
  1321.24        2500.00        3304.82     
  1319.66        2500.00        3306.17     
  1318.08        2500.00        3306.71     
  1316.50        2500.00        3307.33     
  1314.91        2500.00        3307.11     
  1313.33        2500.00        3309.21     
  1311.75        2500.00        3310.91     
  1310.17        2500.00        3311.03     
  1308.58        2500.00        3309.55     
  1307.00        2500.00        3313.12     
  1305.42        2500.00        3312.52     
  1303.84        2500.00        3313.42     
  1302.25        2500.00        3312.87     
  1300.67        2500.00        3313.76     
  1299.09        2500.00        2845.44     
  1297.51        2500.00        2843.03     
  1295.92        2500.00        2847.40     
  1294.34        2500.00        2865.73     
  1292.76        2500.00        2871.13     
  1291.18        2500.00        2874.95     
  1289.59        2500.00        2878.40     
  1288.01        2500.00        2881.84     
  1286.43        2500.00        2883.99     
  1284.85        2500.00        2886.05     
  1283.26        2500.00        2867.56     
  1281.68        2500.00        2896.47     
  1280.10        2500.00        3093.72     
  1278.52        2500.00        2874.70     
  1276.93        2500.00        2935.41     
  1275.35        2500.00        2892.14     
  1273.77        2500.00        2897.67     
  1272.19        2500.00        2899.56     
  1270.60        2500.00        2845.14     
  1269.02        2500.00        2923.29     
  1267.44        2500.00        2866.19     
  1265.86        2500.00        2926.75     
  1264.27        2500.00        2899.09     
  1262.69        2500.00        3045.11     
  1261.11        2500.00        3019.32     
  1259.53        2500.00        2878.26     
  1257.94        2500.00        2839.89     
  1256.36        2500.00        3010.96     
  1254.78        2500.00        2879.01     
  1253.20        2500.00        2880.80     
  1251.61        2500.00        2887.15     
  1250.03        2500.00        2877.13     
  1248.45        2500.00        2886.16     
  1246.87        2500.00        2878.66     
  1245.28        2500.00        2889.18     
  1243.70        2500.00        2885.45     
  1242.12        2500.00        2860.84     
  1240.54        2500.00        2874.41     
  1238.95        2500.00        2722.38     
  1237.37        2500.00        2871.60     
  1235.79        2500.00        2856.38     
  1234.21        2500.00        2872.66     
  1232.62        2500.00        2763.44     
  1231.04        2500.00        2707.49     
  1229.46        2500.00        2688.30     
  1227.88        2500.00        2679.61     
  1226.29        2500.00        2679.68     
  1224.71        2500.00        2679.57     
  1223.13        2500.00        2679.63     
  1221.55        2500.00        2679.80     
  1219.96        2500.00        2679.89     
  1218.38        2500.00        2679.96     
  1216.80        2500.00        2680.04     
  1215.22        2500.00        2680.12     
  1213.63        2500.00        2680.22     
  1212.05        2500.00        2680.27     
  1210.47        2500.00        2680.35     
  1208.89        2500.00        2680.35     
  1207.31        2500.00        2680.52     
  1205.72        2500.00        2680.60     
  1204.14        2500.00        2680.68     
  1202.56        2500.00        2680.78     
  1200.98        2500.00        2680.83     
  1199.39        2500.00        2680.91     
  1197.81        2500.00        2681.00     
  1196.23        2500.00        2681.04     
  1194.65        2500.00        2681.15     
  1193.06        2500.00        2681.20     
  1191.48        2500.00        2681.32     
  1189.90        2500.00        2681.36     
  1188.32        2500.00        2681.42     
  1186.73        2500.00        2681.51     
  1185.15        2500.00        2681.59     
  1183.57        2500.00        2681.66     
  1181.99        2500.00        2681.66     
  1180.40        2500.00        2681.91     
  1178.82        2500.00        2681.96     
  1177.24        2500.00        2682.05     
  1175.66        2500.00        2682.06     
  1174.07        2500.00        2682.15     
  1172.49        2500.00        2682.21     
  1170.91        2500.00        2682.29     
  1169.33        2500.00        2682.37     
  1167.74        2500.00        2682.45     
  1166.16        2500.00        2682.53     
  1164.58        2500.00        2682.62     
  1163.00        2500.00        2682.70     
  1161.41        2500.00        2682.78     
  1159.83        2500.00        2682.86     
  1158.25        2500.00        2682.94     
  1156.67        2500.00        2683.03     
  1155.08        2500.00        2683.11     
  1153.50        2500.00        2683.19     
  1151.92        2500.00        2683.27     
  1150.34        2500.00        2683.36     
  1148.75        2500.00        2683.44     
  1147.17        2500.00        2683.52     
  1145.59        2500.00        2683.60     
  1144.01        2500.00        2683.70     
  1142.42        2500.00        2683.84     
  1140.84        2500.00        2683.92     
  1139.26        2500.00        2684.01     
  1137.68        2500.00        2684.06     
  1136.09        2500.00        2684.11     
  1134.51        2500.00        2684.20     
  1132.93        2500.00        2684.29     
  1131.35        2500.00        2684.36     
  1129.76        2500.00        2684.43     
  1128.18        2500.00        2684.54     
  1126.60        2500.00        2684.62     
  1125.02        2500.00        2684.70     
  1123.43        2500.00        2684.78     
  1121.85        2500.00        2684.86     
  1120.27        2500.00        2684.94     
  1118.69        2500.00        2685.02     
  1117.10        2500.00        2685.10     
  1115.52        2500.00        2685.18     
  1113.94        2500.00        2685.26     
  1112.36        2500.00        2685.34     
  1110.77        2500.00        2685.41     
  1109.19        2500.00        2685.48     
  1107.61        2500.00        2685.56     
  1106.03        2500.00        2685.63     
  1104.44        2500.00        2685.77     
  1102.86        2500.00        2685.85     
  1101.28        2500.00        2685.92     
  1099.70        2500.00        2685.94     
  1098.11        2500.00        2686.02     
  1096.53        2500.00        2686.10     
  1094.95        2500.00        2686.18     
  1093.37        2500.00        2686.25     
  1091.78        2500.00        2686.41     
  1090.20        2500.00        2686.49     
  1088.62        2500.00        2686.48     
  1087.04        2500.00        2686.56     
  1085.45        2500.00        2686.64     
  1083.87        2500.00        2686.71     
  1082.29        2500.00        2686.79     
  1080.71        2500.00        2686.87     
  1079.12        2500.00        2686.95     
  1077.54        2500.00        2687.02     
  1075.96        2500.00        2687.10     
  1074.38        2500.00        2687.25     
  1072.79        2500.00        2687.34     
  1071.21        2500.00        2687.42     
  1069.63        2500.00        2687.49     
  1068.05        2500.00        2687.56     
  1066.46        2500.00        2687.64     
  1064.88        2500.00        2687.71     
  1063.30        2500.00        2687.79     
  1061.72        2500.00        2687.87     
  1060.13        2500.00        2687.94     
  1058.55        2500.00        2688.04     
  1056.97        2500.00        2688.09     
  1055.39        2500.00        2688.15     
  1053.80        2500.00        2688.23     
  1052.22        2500.00        2688.30     
  1050.64        2500.00        2688.39     
  1049.06        2500.00        2688.45     
  1047.47        2500.00        2688.52     
  1045.89        2500.00        2688.59     
  1044.31        2500.00        2688.68     
  1042.73        2500.00        2688.75     
  1041.14        2500.00        2688.82     
  1039.56        2500.00        2688.90     
  1037.98        2500.00        2688.97     
  1036.40        2500.00        2689.05     
  1034.81        2500.00        2689.12     
  1033.23        2500.00        2689.20     
  1031.65        2500.00        2689.27     
  1030.07        2500.00        2689.35     
  1028.48        2500.00        2689.42     
  1026.90        2500.00        2689.49     
  1025.32        2500.00        2689.57     
  1023.74        2500.00        2689.64     
  1022.15        2500.00        2689.72     
  1020.57        2500.00        2689.79     
  1018.99        2500.00        2689.86     
  1017.41        2500.00        2689.94     
  1015.82        2500.00        2690.01     
  1014.24        2500.00        2690.09     
  1012.66        2500.00        2690.16     
  1011.08        2500.00        2690.23     
  1009.49        2500.00        2690.37     
  1007.91        2500.00        2690.38     
  1006.33        2500.00        2690.46     
  1004.75        2500.00        2690.54     
  1003.16        2500.00        2690.61     
  1001.58        2500.00        2690.69     
  1000.00        2500.00        2690.76     
