|6.6.6
Archiving\03_Data\DeqLP/QFM_m2.25/T13/T13_6.tab                       
           1
T(K)    
  0.000000000000000E+000
  0.000000000000000E+000
           0
           3
T(K)           P(bar)         rho,kg/m3     
  2000.00        500.000        8099.88     
  1996.79        500.000        8101.72     
  1993.59        500.000        8103.55     
  1990.38        500.000        8105.38     
  1987.18        500.000        8107.21     
  1983.97        500.000        8109.03     
  1980.77        500.000        8110.86     
  1977.56        500.000        8112.68     
  1974.36        500.000        8114.50     
  1971.15        500.000        8116.32     
  1967.95        500.000        8118.14     
  1964.74        500.000        8119.96     
  1961.54        500.000        8121.78     
  1958.33        500.000        8123.59     
  1955.13        500.000        8125.41     
  1951.92        500.000        8127.22     
  1948.72        500.000        8129.03     
  1945.51        500.000        8130.84     
  1942.31        500.000        3198.67     
  1939.10        500.000        3175.18     
  1935.90        500.000        3172.49     
  1932.69        500.000        3170.95     
  1929.49        500.000        3170.12     
  1926.28        500.000        3169.68     
  1923.08        500.000        3169.47     
  1919.87        500.000        3171.67     
  1916.67        500.000        3173.43     
  1913.46        500.000        3174.91     
  1910.26        500.000        3176.18     
  1907.05        500.000        3177.30     
  1903.85        500.000        3178.31     
  1900.64        500.000        3179.24     
  1897.44        500.000        3180.11     
  1894.23        500.000        3182.31     
  1891.03        500.000        3184.30     
  1887.82        500.000        3186.10     
  1884.62        500.000        3187.76     
  1881.41        500.000        3190.78     
  1878.21        500.000        3193.52     
  1875.00        500.000        3196.66     
  1871.79        500.000        3199.56     
  1868.59        500.000        3202.83     
  1865.38        500.000        3205.88     
  1862.18        500.000        3208.73     
  1858.97        500.000        3211.41     
  1855.77        500.000        3213.94     
  1852.56        500.000        3216.32     
  1849.36        500.000        3218.58     
  1846.15        500.000        3220.73     
  1842.95        500.000        3223.57     
  1839.74        500.000        3226.27     
  1836.54        500.000        3228.85     
  1833.33        500.000        3231.32     
  1830.13        500.000        3233.69     
  1826.92        500.000        3235.96     
  1823.72        500.000        3238.14     
  1820.51        500.000        3240.24     
  1817.31        500.000        3242.82     
  1814.10        500.000        3245.31     
  1810.90        500.000        3247.72     
  1807.69        500.000        3250.04     
  1804.49        500.000        3252.29     
  1801.28        500.000        3254.46     
  1798.08        500.000        3256.57     
  1794.87        500.000        3258.61     
  1791.67        500.000        3260.96     
  1788.46        500.000        3263.24     
  1785.26        500.000        3265.45     
  1782.05        500.000        3267.60     
  1778.85        500.000        3269.70     
  1775.64        500.000        3271.75     
  1772.44        500.000        3273.74     
  1769.23        500.000        3275.68     
  1766.03        500.000        3277.80     
  1762.82        500.000        3279.86     
  1759.62        500.000        3281.88     
  1756.41        500.000        3283.85     
  1753.21        500.000        3285.79     
  1750.00        500.000        3287.68     
  1746.79        500.000        3289.53     
  1743.59        500.000        3291.34     
  1740.38        500.000        3293.22     
  1737.18        500.000        3295.06     
  1733.97        500.000        3296.87     
  1730.77        500.000        3298.64     
  1727.56        500.000        3300.39     
  1724.36        500.000        3302.10     
  1721.15        500.000        3303.78     
  1717.95        500.000        3305.44     
  1714.74        500.000        3307.08     
  1711.54        500.000        3308.69     
  1708.33        500.000        3310.28     
  1705.13        500.000        3311.84     
  1701.92        500.000        3313.39     
  1698.72        500.000        3314.91     
  1695.51        500.000        3316.41     
  1692.31        500.000        3317.88     
  1689.10        500.000        3319.30     
  1685.90        500.000        3320.70     
  1682.69        500.000        3322.08     
  1679.49        500.000        3323.45     
  1676.28        500.000        3324.80     
  1673.08        500.000        3326.13     
  1669.87        500.000        3327.45     
  1666.67        500.000        3328.75     
  1663.46        500.000        3329.96     
  1660.26        500.000        3331.16     
  1657.05        500.000        3332.35     
  1653.85        500.000        3333.53     
  1650.64        500.000        3334.69     
  1647.44        500.000        3335.85     
  1644.23        500.000        3336.99     
  1641.03        500.000        3338.13     
  1637.82        500.000        3339.17     
  1634.62        500.000        3340.21     
  1631.41        500.000        3341.24     
  1628.21        500.000        3342.27     
  1625.00        500.000        3343.28     
  1621.79        500.000        3344.29     
  1618.59        500.000        3345.29     
  1615.38        500.000        3346.29     
  1612.18        500.000        3347.23     
  1608.97        500.000        3348.17     
  1605.77        500.000        3349.10     
  1602.56        500.000        3350.03     
  1599.36        500.000        3349.65     
  1596.15        500.000        3349.10     
  1592.95        500.000        3348.67     
  1589.74        500.000        3348.26     
  1586.54        500.000        3348.03     
  1583.33        500.000        3347.82     
  1580.13        500.000        3347.62     
  1576.92        500.000        3347.43     
  1573.72        500.000        3347.25     
  1570.51        500.000        3347.09     
  1567.31        500.000        3346.94     
  1564.10        500.000        3346.80     
  1560.90        500.000        3346.82     
  1557.69        500.000        3346.85     
  1554.49        500.000        3346.88     
  1551.28        500.000        3346.92     
  1548.08        500.000        3346.97     
  1544.87        500.000        3347.02     
  1541.67        500.000        3347.08     
  1538.46        500.000        3347.14     
  1535.26        500.000        3347.27     
  1532.05        500.000        3347.41     
  1528.85        500.000        3347.55     
  1525.64        500.000        3347.69     
  1522.44        500.000        3347.84     
  1519.23        500.000        3347.99     
  1516.03        500.000        3348.14     
  1512.82        500.000        3348.30     
  1509.62        500.000        3348.48     
  1506.41        500.000        3348.67     
  1503.21        500.000        3348.86     
  1500.00        500.000        3349.05     
  1496.79        500.000        3349.25     
  1493.59        500.000        3349.45     
  1490.38        500.000        3349.65     
  1487.18        500.000        3349.85     
  1483.97        500.000        3350.06     
  1480.77        500.000        3350.27     
  1477.56        500.000        3350.48     
  1474.36        500.000        3350.69     
  1471.15        500.000        3350.92     
  1467.95        500.000        3351.13     
  1464.74        500.000        3351.36     
  1461.54        500.000        3351.58     
  1458.33        500.000        3351.86     
  1455.13        500.000        3352.14     
  1451.92        500.000        3352.42     
  1448.72        500.000        3352.71     
  1445.51        500.000        3353.03     
  1442.31        500.000        3353.35     
  1439.10        500.000        3353.69     
  1435.90        500.000        3353.61     
  1432.69        500.000        3354.06     
  1429.49        500.000        3354.51     
  1426.28        500.000        3354.96     
  1423.08        500.000        3355.40     
  1419.87        500.000        3355.85     
  1416.67        500.000        3356.30     
  1413.46        500.000        3356.75     
  1410.26        500.000        3346.24     
  1407.05        500.000        3346.68     
  1403.85        500.000        3347.12     
  1400.64        500.000        3347.56     
  1397.44        500.000        3348.00     
  1394.23        500.000        3348.44     
  1391.03        500.000        3348.88     
  1387.82        500.000        3349.32     
  1384.62        500.000        3344.28     
  1381.41        500.000        3344.72     
  1378.21        500.000        3345.16     
  1375.00        500.000        3345.59     
  1371.79        500.000        3346.03     
  1368.59        500.000        3346.46     
  1365.38        500.000        3346.90     
  1362.18        500.000        3347.33     
  1358.97        500.000        3343.88     
  1355.77        500.000        3344.31     
  1352.56        500.000        3344.74     
  1349.36        500.000        3345.17     
  1346.15        500.000        3345.60     
  1342.95        500.000        3346.04     
  1339.74        500.000        3346.47     
  1336.54        500.000        3346.90     
  1333.33        500.000        3344.16     
  1330.13        500.000        3344.59     
  1326.92        500.000        3345.02     
  1323.72        500.000        3345.44     
  1320.51        500.000        3345.87     
  1317.31        500.000        3346.30     
  1314.10        500.000        3346.73     
  1310.90        500.000        3347.16     
  1307.69        500.000        3344.87     
  1304.49        500.000        3345.30     
  1301.28        500.000        3345.11     
  1298.08        500.000        3338.72     
  1294.87        500.000        3339.09     
  1291.67        500.000        3339.51     
  1288.46        500.000        3339.94     
  1285.26        500.000        3340.36     
  1282.05        500.000        3340.58     
  1278.85        500.000        3341.00     
  1275.64        500.000        3341.42     
  1272.44        500.000        3341.84     
  1269.23        500.000        3342.26     
  1266.03        500.000        3342.69     
  1262.82        500.000        3343.11     
  1259.62        500.000        3343.53     
  1256.41        500.000        3343.57     
  1253.21        500.000        3343.99     
  1250.00        500.000        3344.41     
  1246.79        500.000        3344.83     
  1243.59        500.000        3345.24     
  1240.38        500.000        3345.66     
  1237.18        500.000        3346.08     
  1233.97        500.000        3346.50     
  1230.77        500.000        3346.57     
  1227.56        500.000        3346.99     
  1224.36        500.000        3347.41     
  1221.15        500.000        3347.82     
  1217.95        500.000        3348.24     
  1214.74        500.000        3348.65     
  1211.54        500.000        3349.07     
  1208.33        500.000        3349.49     
  1205.13        500.000        3349.59     
  1201.92        500.000        3350.00     
  1198.72        500.000        3350.42     
  1195.51        500.000        3350.83     
  1192.31        500.000        3351.24     
  1189.10        500.000        3351.66     
  1185.90        500.000        3352.07     
  1182.69        500.000        3352.49     
  1179.49        500.000        3352.62     
  1176.28        500.000        3353.03     
  1173.08        500.000        3353.44     
  1169.87        500.000        3353.85     
  1166.67        500.000        3354.27     
  1163.46        500.000        3354.68     
  1160.26        500.000        3355.09     
  1157.05        500.000        3355.50     
  1153.85        500.000        3355.66     
  1150.64        500.000        3356.07     
  1147.44        500.000        3356.48     
  1144.23        500.000        3356.89     
  1141.03        500.000        3357.30     
  1137.82        500.000        3357.71     
  1134.62        500.000        3358.12     
  1131.41        500.000        3358.53     
  1128.21        500.000        3358.71     
  1125.00        500.000        3359.12     
  1121.79        500.000        3359.53     
  1118.59        500.000        3359.94     
  1115.38        500.000        3360.35     
  1112.18        500.000        3360.75     
  1108.97        500.000        3361.16     
  1105.77        500.000        3361.57     
  1102.56        500.000        3361.78     
  1099.36        500.000        3362.19     
  1096.15        500.000        3362.59     
  1092.95        500.000        3363.00     
  1089.74        500.000        3363.41     
  1086.54        500.000        3363.81     
  1083.33        500.000        3364.22     
  1080.13        500.000        3364.62     
  1076.92        500.000        3364.87     
  1073.72        500.000        3365.27     
  1070.51        500.000        3365.67     
  1067.31        500.000        3366.08     
  1064.10        500.000        3366.41     
  1060.90        500.000        3366.80     
  1057.69        500.000        3367.19     
  1054.49        500.000        3367.60     
  1051.28        500.000        3367.96     
  1048.08        500.000        3368.36     
  1044.87        500.000        3368.77     
  1041.67        500.000        3369.17     
  1038.46        500.000        3369.57     
  1035.26        500.000        3369.97     
  1032.05        500.000        3370.38     
  1028.85        500.000        3370.78     
  1025.64        500.000        3371.04     
  1022.44        500.000        3371.44     
  1019.23        500.000        3371.84     
  1016.03        500.000        3372.24     
  1012.82        500.000        3372.64     
  1009.62        500.000        3373.04     
  1006.41        500.000        3373.44     
  1003.21        500.000        3373.84     
  1000.00        500.000        3374.14     
