|6.6.6
Archiving\03_Data\frac/QFM_m2.75/TIS/TIS_6.tab                            
           1
T(K)    
  0.000000000000000E+000
  0.000000000000000E+000
           0
           3
T(K)           P(bar)         rho,kg/m3     
  2000.00        2500.00        3594.80     
  1997.49        2500.00        3595.17     
  1994.99        2500.00        3595.55     
  1992.48        2500.00        3595.92     
  1989.97        2500.00        3596.29     
  1987.47        2500.00        3596.66     
  1984.96        2500.00        3597.03     
  1982.46        2500.00        3597.40     
  1979.95        2500.00        3597.78     
  1977.44        2500.00        3598.15     
  1974.94        2500.00        3598.52     
  1972.43        2500.00        3598.89     
  1969.92        2500.00        3599.26     
  1967.42        2500.00        3599.63     
  1964.91        2500.00        3600.00     
  1962.41        2500.00        3600.37     
  1959.90        2500.00        3600.74     
  1957.39        2500.00        3601.11     
  1954.89        2500.00        3601.48     
  1952.38        2500.00        3601.85     
  1949.87        2500.00        3602.22     
  1947.37        2500.00        3602.59     
  1944.86        2500.00        3602.96     
  1942.36        2500.00        3603.33     
  1939.85        2500.00        3603.70     
  1937.34        2500.00        3604.07     
  1934.84        2500.00        3604.44     
  1932.33        2500.00        3604.81     
  1929.82        2500.00        3605.18     
  1927.32        2500.00        3605.54     
  1924.81        2500.00        3605.91     
  1922.31        2500.00        3606.28     
  1919.80        2500.00        3606.65     
  1917.29        2500.00        3607.02     
  1914.79        2500.00        3607.39     
  1912.28        2500.00        3607.75     
  1909.77        2500.00        3608.12     
  1907.27        2500.00        3608.49     
  1904.76        2500.00        3608.86     
  1902.26        2500.00        3609.22     
  1899.75        2500.00        3609.59     
  1897.24        2500.00        3609.96     
  1894.74        2500.00        3610.32     
  1892.23        2500.00        3610.69     
  1889.72        2500.00        3611.06     
  1887.22        2500.00        3611.42     
  1884.71        2500.00        3611.79     
  1882.21        2500.00        3612.16     
  1879.70        2500.00        3612.52     
  1877.19        2500.00        3612.89     
  1874.69        2500.00        3613.26     
  1872.18        2500.00        3613.62     
  1869.67        2500.00        3613.99     
  1867.17        2500.00        3614.35     
  1864.66        2500.00        3614.72     
  1862.16        2500.00        3615.08     
  1859.65        2500.00        3615.45     
  1857.14        2500.00        3615.81     
  1854.64        2500.00        3616.18     
  1852.13        2500.00        3616.54     
  1849.62        2500.00        3616.91     
  1847.12        2500.00        3617.27     
  1844.61        2500.00        3617.64     
  1842.11        2500.00        3618.00     
  1839.60        2500.00        3618.37     
  1837.09        2500.00        3618.73     
  1834.59        2500.00        3619.10     
  1832.08        2500.00        3619.46     
  1829.57        2500.00        3619.82     
  1827.07        2500.00        3620.19     
  1824.56        2500.00        3620.55     
  1822.06        2500.00        3620.91     
  1819.55        2500.00        3621.28     
  1817.04        2500.00        3621.64     
  1814.54        2500.00        3622.00     
  1812.03        2500.00        3622.37     
  1809.52        2500.00        3622.73     
  1807.02        2500.00        3623.09     
  1804.51        2500.00        3623.45     
  1802.01        2500.00        3623.82     
  1799.50        2500.00        3624.18     
  1796.99        2500.00        3624.54     
  1794.49        2500.00        3624.90     
  1791.98        2500.00        3625.27     
  1789.47        2500.00        3625.63     
  1786.97        2500.00        3625.99     
  1784.46        2500.00        3626.35     
  1781.95        2500.00        3626.71     
  1779.45        2500.00        3627.07     
  1776.94        2500.00        3627.43     
  1774.44        2500.00        3627.80     
  1771.93        2500.00        3628.16     
  1769.42        2500.00        3628.52     
  1766.92        2500.00        3628.88     
  1764.41        2500.00        3629.24     
  1761.90        2500.00        3629.60     
  1759.40        2500.00        3629.96     
  1756.89        2500.00        3630.32     
  1754.39        2500.00        3630.68     
  1751.88        2500.00        3631.04     
  1749.37        2500.00        3631.40     
  1746.87        2500.00        3631.76     
  1744.36        2500.00        3632.12     
  1741.85        2500.00        3632.48     
  1739.35        2500.00        3632.84     
  1736.84        2500.00        3633.20     
  1734.34        2500.00        3633.56     
  1731.83        2500.00        3633.92     
  1729.32        2500.00        3634.28     
  1726.82        2500.00        3634.63     
  1724.31        2500.00        3634.99     
  1721.80        2500.00        3635.35     
  1719.30        2500.00        3635.71     
  1716.79        2500.00        3636.07     
  1714.29        2500.00        3636.43     
  1711.78        2500.00        3636.79     
  1709.27        2500.00        3637.14     
  1706.77        2500.00        3637.50     
  1704.26        2500.00        3637.86     
  1701.75        2500.00        3638.22     
  1699.25        2500.00        3638.57     
  1696.74        2500.00        3638.93     
  1694.24        2500.00        3639.29     
  1691.73        2500.00        3639.65     
  1689.22        2500.00        3641.52     
  1686.72        2500.00        3649.17     
  1684.21        2500.00        3649.46     
  1681.70        2500.00        3649.75     
  1679.20        2500.00        3650.02     
  1676.69        2500.00        3650.31     
  1674.19        2500.00        3650.60     
  1671.68        2500.00        3650.88     
  1669.17        2500.00        3651.17     
  1666.67        2500.00        3546.31     
  1664.16        2500.00        4510.17     
  1661.65        2500.00        4508.58     
  1659.15        2500.00        4510.66     
  1656.64        2500.00        4510.87     
  1654.14        2500.00        3412.69     
  1651.63        2500.00        3409.68     
  1649.12        2500.00        3410.67     
  1646.62        2500.00        3414.28     
  1644.11        2500.00        3416.38     
  1641.60        2500.00        3418.26     
  1639.10        2500.00        3420.14     
  1636.59        2500.00        3422.23     
  1634.09        2500.00        3424.77     
  1631.58        2500.00        3426.47     
  1629.07        2500.00        3428.19     
  1626.57        2500.00        3430.96     
  1624.06        2500.00        3433.60     
  1621.55        2500.00        3435.23     
  1619.05        2500.00        3437.37     
  1616.54        2500.00        3439.62     
  1614.04        2500.00        3441.44     
  1611.53        2500.00        3443.56     
  1609.02        2500.00        3444.34     
  1606.52        2500.00        3448.20     
  1604.01        2500.00        3450.10     
  1601.50        2500.00        3452.30     
  1599.00        2500.00        3454.44     
  1596.49        2500.00        3456.06     
  1593.98        2500.00        3460.00     
  1591.48        2500.00        3460.33     
  1588.97        2500.00        3462.71     
  1586.47        2500.00        3464.96     
  1583.96        2500.00        3466.46     
  1581.45        2500.00        3467.89     
  1578.95        2500.00        3470.36     
  1576.44        2500.00        3472.09     
  1573.93        2500.00        3475.26     
  1571.43        2500.00        3477.17     
  1568.92        2500.00        3479.13     
  1566.42        2500.00        3481.24     
  1563.91        2500.00        3483.19     
  1561.40        2500.00        3407.64     
  1558.90        2500.00        3324.48     
  1556.39        2500.00        3325.56     
  1553.88        2500.00        3326.60     
  1551.38        2500.00        3327.41     
  1548.87        2500.00        3328.75     
  1546.37        2500.00        3330.54     
  1543.86        2500.00        3331.61     
  1541.35        2500.00        3332.90     
  1538.85        2500.00        3334.02     
  1536.34        2500.00        3336.00     
  1533.83        2500.00        3345.39     
  1531.33        2500.00        3337.33     
  1528.82        2500.00        3339.56     
  1526.32        2500.00        3331.03     
  1523.81        2500.00        3337.92     
  1521.30        2500.00        3312.42     
  1518.80        2500.00        3311.58     
  1516.29        2500.00        3313.60     
  1513.78        2500.00        3314.95     
  1511.28        2500.00        3316.01     
  1508.77        2500.00        3318.25     
  1506.27        2500.00        3319.26     
  1503.76        2500.00        3321.45     
  1501.25        2500.00        3321.92     
  1498.75        2500.00        3326.44     
  1496.24        2500.00        3328.82     
  1493.73        2500.00        3307.61     
  1491.23        2500.00        3308.85     
  1488.72        2500.00        3311.20     
  1486.22        2500.00        3313.54     
  1483.71        2500.00        3316.02     
  1481.20        2500.00        3318.19     
  1478.70        2500.00        3320.60     
  1476.19        2500.00        3323.52     
  1473.68        2500.00        3330.81     
  1471.18        2500.00        3343.82     
  1468.67        2500.00        3346.29     
  1466.17        2500.00        3348.48     
  1463.66        2500.00        3350.91     
  1461.15        2500.00        3353.36     
  1458.65        2500.00        3355.61     
  1456.14        2500.00        3358.19     
  1453.63        2500.00        3362.72     
  1451.13        2500.00        3362.54     
  1448.62        2500.00        3365.06     
  1446.12        2500.00        3367.50     
  1443.61        2500.00        3369.83     
  1441.10        2500.00        3372.46     
  1438.60        2500.00        3374.62     
  1436.09        2500.00        3377.20     
  1433.58        2500.00        3379.27     
  1431.08        2500.00        3382.31     
  1428.57        2500.00        3385.37     
  1426.07        2500.00        3389.97     
  1423.56        2500.00        3389.43     
  1421.05        2500.00        3392.28     
  1418.55        2500.00        3248.58     
  1416.04        2500.00        3207.50     
  1413.53        2500.00        3212.26     
  1411.03        2500.00        3217.04     
  1408.52        2500.00        3221.85     
  1406.02        2500.00        3226.53     
  1403.51        2500.00        3231.08     
  1401.00        2500.00        3235.10     
  1398.50        2500.00        3239.89     
  1395.99        2500.00        3244.06     
  1393.48        2500.00        3248.58     
  1390.98        2500.00        3252.77     
  1388.47        2500.00        3257.30     
  1385.96        2500.00        3261.25     
  1383.46        2500.00        3265.57     
  1380.95        2500.00        3270.17     
  1378.45        2500.00        3274.02     
  1375.94        2500.00        3277.25     
  1373.43        2500.00        3282.09     
  1370.93        2500.00        3286.40     
  1368.42        2500.00        3290.06     
  1365.91        2500.00        3294.27     
  1363.41        2500.00        3297.68     
  1360.90        2500.00        3301.78     
  1358.40        2500.00        3305.26     
  1355.89        2500.00        3308.73     
  1353.38        2500.00        3312.10     
  1350.88        2500.00        3326.69     
  1348.37        2500.00        3359.34     
  1345.86        2500.00        3361.86     
  1343.36        2500.00        3364.37     
  1340.85        2500.00        3366.54     
  1338.35        2500.00        3368.43     
  1335.84        2500.00        3370.39     
  1333.33        2500.00        3372.14     
  1330.83        2500.00        3373.60     
  1328.32        2500.00        3375.44     
  1325.81        2500.00        3376.57     
  1323.31        2500.00        3378.06     
  1320.80        2500.00        3379.50     
  1318.30        2500.00        3380.33     
  1315.79        2500.00        3381.28     
  1313.28        2500.00        3382.15     
  1310.78        2500.00        3382.84     
  1308.27        2500.00        3383.43     
  1305.76        2500.00        3384.18     
  1303.26        2500.00        3384.57     
  1300.75        2500.00        3384.88     
  1298.25        2500.00        3385.00     
  1295.74        2500.00        2893.70     
  1293.23        2500.00        2895.89     
  1290.73        2500.00        2903.07     
  1288.22        2500.00        2909.06     
  1285.71        2500.00        2913.98     
  1283.21        2500.00        2918.24     
  1280.70        2500.00        2913.54     
  1278.20        2500.00        2931.90     
  1275.69        2500.00        2907.22     
  1273.18        2500.00        2947.40     
  1270.68        2500.00        2907.83     
  1268.17        2500.00        2927.07     
  1265.66        2500.00        2978.80     
  1263.16        2500.00        2930.31     
  1260.65        2500.00        2854.69     
  1258.15        2500.00        2911.87     
  1255.64        2500.00        3088.06     
  1253.13        2500.00        3176.18     
  1250.63        2500.00        2745.84     
  1248.12        2500.00        2763.39     
  1245.61        2500.00        2795.52     
  1243.11        2500.00        2786.45     
  1240.60        2500.00        2738.50     
  1238.10        2500.00        2734.62     
  1235.59        2500.00        2660.03     
  1233.08        2500.00        2771.17     
  1230.58        2500.00        2668.95     
  1228.07        2500.00        2695.06     
  1225.56        2500.00        2694.56     
  1223.06        2500.00        2694.68     
  1220.55        2500.00        2694.89     
  1218.05        2500.00        2695.29     
  1215.54        2500.00        2695.36     
  1213.03        2500.00        2695.21     
  1210.53        2500.00        2695.58     
  1208.02        2500.00        2687.17     
  1205.51        2500.00        2695.60     
  1203.01        2500.00        2695.96     
  1200.50        2500.00        2696.20     
  1197.99        2500.00        2695.99     
  1195.49        2500.00        2696.06     
  1192.98        2500.00        2696.61     
  1190.48        2500.00        2696.74     
  1187.97        2500.00        2696.87     
  1185.46        2500.00        2697.00     
  1182.96        2500.00        2697.13     
  1180.45        2500.00        2697.26     
  1177.94        2500.00        2697.65     
  1175.44        2500.00        2697.52     
  1172.93        2500.00        2697.90     
  1170.43        2500.00        2697.78     
  1167.92        2500.00        2697.55     
  1165.41        2500.00        2697.69     
  1162.91        2500.00        2697.81     
  1160.40        2500.00        2697.95     
  1157.89        2500.00        2698.07     
  1155.39        2500.00        2698.20     
  1152.88        2500.00        2698.69     
  1150.38        2500.00        2698.82     
  1147.87        2500.00        2698.95     
  1145.36        2500.00        2699.08     
  1142.86        2500.00        2699.21     
  1140.35        2500.00        2699.34     
  1137.84        2500.00        2699.47     
  1135.34        2500.00        2699.60     
  1132.83        2500.00        2699.73     
  1130.33        2500.00        2699.86     
  1127.82        2500.00        2699.99     
  1125.31        2500.00        2700.12     
  1122.81        2500.00        2700.25     
  1120.30        2500.00        2700.37     
  1117.79        2500.00        2700.50     
  1115.29        2500.00        2700.63     
  1112.78        2500.00        2700.76     
  1110.28        2500.00        2700.89     
  1107.77        2500.00        2701.02     
  1105.26        2500.00        2701.15     
  1102.76        2500.00        2701.28     
  1100.25        2500.00        2701.78     
  1097.74        2500.00        2701.54     
  1095.24        2500.00        2701.67     
  1092.73        2500.00        2701.80     
  1090.23        2500.00        2701.93     
  1087.72        2500.00        2702.05     
  1085.21        2500.00        2702.18     
  1082.71        2500.00        2702.31     
  1080.20        2500.00        2702.44     
  1077.69        2500.00        2702.57     
  1075.19        2500.00        2702.69     
  1072.68        2500.00        2702.82     
  1070.18        2500.00        2702.95     
  1067.67        2500.00        2703.08     
  1065.16        2500.00        2703.21     
  1062.66        2500.00        2703.33     
  1060.15        2500.00        2703.03     
  1057.64        2500.00        2703.15     
  1055.14        2500.00        2703.28     
  1052.63        2500.00        2703.40     
  1050.13        2500.00        2703.52     
  1047.62        2500.00        2703.64     
  1045.11        2500.00        2703.77     
  1042.61        2500.00        2703.89     
  1040.10        2500.00        2704.01     
  1037.59        2500.00        2704.13     
  1035.09        2500.00        2704.73     
  1032.58        2500.00        2704.85     
  1030.08        2500.00        2704.98     
  1027.57        2500.00        2705.10     
  1025.06        2500.00        2705.23     
  1022.56        2500.00        2705.35     
  1020.05        2500.00        2705.48     
  1017.54        2500.00        2705.60     
  1015.04        2500.00        2705.73     
  1012.53        2500.00        2705.84     
  1010.03        2500.00        2705.96     
  1007.52        2500.00        2706.10     
  1005.01        2500.00        2705.69     
  1002.51        2500.00        2705.81     
  1000.00        2500.00        2705.93     
