|6.6.6
Archiving\03_Data\eqLP/QFM_m1.5/Y98/Y98_6.tab                             
           1
T(K)    
  0.000000000000000E+000
  0.000000000000000E+000
           0
           3
T(K)           P(bar)         rho,kg/m3     
  2000.00        500.000        3600.76     
  1996.79        500.000        3601.24     
  1993.59        500.000        3601.72     
  1990.38        500.000        3602.21     
  1987.18        500.000        3602.69     
  1983.97        500.000        3603.17     
  1980.77        500.000        3603.66     
  1977.56        500.000        3604.14     
  1974.36        500.000        3604.62     
  1971.15        500.000        3605.11     
  1967.95        500.000        3605.59     
  1964.74        500.000        3606.07     
  1961.54        500.000        3606.55     
  1958.33        500.000        3607.03     
  1955.13        500.000        3607.51     
  1951.92        500.000        3608.00     
  1948.72        500.000        3608.48     
  1945.51        500.000        3608.96     
  1942.31        500.000        3609.44     
  1939.10        500.000        3609.92     
  1935.90        500.000        3610.40     
  1932.69        500.000        3610.88     
  1929.49        500.000        3611.36     
  1926.28        500.000        3611.84     
  1923.08        500.000        3612.32     
  1919.87        500.000        3612.79     
  1916.67        500.000        3613.27     
  1913.46        500.000        3613.75     
  1910.26        500.000        3614.23     
  1907.05        500.000        3614.71     
  1903.85        500.000        3615.19     
  1900.64        500.000        3615.66     
  1897.44        500.000        3616.14     
  1894.23        500.000        3616.62     
  1891.03        500.000        3617.09     
  1887.82        500.000        3617.57     
  1884.62        500.000        3618.05     
  1881.41        500.000        3618.52     
  1878.21        500.000        3619.00     
  1875.00        500.000        3619.48     
  1871.79        500.000        3619.95     
  1868.59        500.000        3620.43     
  1865.38        500.000        3620.90     
  1862.18        500.000        3621.38     
  1858.97        500.000        3621.85     
  1855.77        500.000        3622.33     
  1852.56        500.000        3622.80     
  1849.36        500.000        3623.28     
  1846.15        500.000        3623.75     
  1842.95        500.000        3624.22     
  1839.74        500.000        3624.70     
  1836.54        500.000        3625.17     
  1833.33        500.000        3625.64     
  1830.13        500.000        3626.12     
  1826.92        500.000        3626.59     
  1823.72        500.000        3627.06     
  1820.51        500.000        3627.54     
  1817.31        500.000        3628.01     
  1814.10        500.000        3628.48     
  1810.90        500.000        3628.95     
  1807.69        500.000        3629.42     
  1804.49        500.000        3629.89     
  1801.28        500.000        3630.37     
  1798.08        500.000        3630.84     
  1794.87        500.000        3631.31     
  1791.67        500.000        3631.78     
  1788.46        500.000        3632.25     
  1785.26        500.000        3632.72     
  1782.05        500.000        3633.19     
  1778.85        500.000        3633.66     
  1775.64        500.000        3634.13     
  1772.44        500.000        3634.60     
  1769.23        500.000        3635.07     
  1766.03        500.000        3635.54     
  1762.82        500.000        3636.00     
  1759.62        500.000        3636.47     
  1756.41        500.000        3636.94     
  1753.21        500.000        3637.41     
  1750.00        500.000        3637.88     
  1746.79        500.000        3638.34     
  1743.59        500.000        3638.81     
  1740.38        500.000        3639.28     
  1737.18        500.000        3639.75     
  1733.97        500.000        3640.21     
  1730.77        500.000        3640.68     
  1727.56        500.000        3641.15     
  1724.36        500.000        3641.61     
  1721.15        500.000        3642.08     
  1717.95        500.000        3642.54     
  1714.74        500.000        3643.01     
  1711.54        500.000        3643.48     
  1708.33        500.000        3643.94     
  1705.13        500.000        3644.41     
  1701.92        500.000        3644.87     
  1698.72        500.000        3645.34     
  1695.51        500.000        3645.80     
  1692.31        500.000        3646.26     
  1689.10        500.000        3650.79     
  1685.90        500.000        3663.76     
  1682.69        500.000        3584.54     
  1679.49        500.000        3560.24     
  1676.28        500.000        3562.37     
  1673.08        500.000        3564.37     
  1669.87        500.000        3566.27     
  1666.67        500.000        3568.07     
  1663.46        500.000        3555.25     
  1660.26        500.000        3544.63     
  1657.05        500.000        3535.71     
  1653.85        500.000        3528.13     
  1650.64        500.000        3521.61     
  1647.44        500.000        3515.96     
  1644.23        500.000        3511.02     
  1641.03        500.000        3506.69     
  1637.82        500.000        3484.41     
  1634.62        500.000        3468.59     
  1631.41        500.000        3456.82     
  1628.21        500.000        3447.76     
  1625.00        500.000        3440.60     
  1621.79        500.000        3434.82     
  1618.59        500.000        3430.07     
  1615.38        500.000        3426.13     
  1612.18        500.000        3423.11     
  1608.97        500.000        3420.66     
  1605.77        500.000        3418.64     
  1602.56        500.000        3416.97     
  1599.36        500.000        3415.58     
  1596.15        500.000        3414.42     
  1592.95        500.000        3413.44     
  1589.74        500.000        3412.62     
  1586.54        500.000        3412.79     
  1583.33        500.000        3412.99     
  1580.13        500.000        3413.22     
  1576.92        500.000        3413.46     
  1573.72        500.000        3409.56     
  1570.51        500.000        3397.04     
  1567.31        500.000        3387.16     
  1564.10        500.000        3378.79     
  1560.90        500.000        3373.02     
  1557.69        500.000        3367.97     
  1554.49        500.000        3363.50     
  1551.28        500.000        3359.53     
  1548.08        500.000        3355.99     
  1544.87        500.000        3352.81     
  1541.67        500.000        3349.96     
  1538.46        500.000        3347.38     
  1535.26        500.000        3345.86     
  1532.05        500.000        3344.48     
  1528.85        500.000        3343.21     
  1525.64        500.000        3342.05     
  1522.44        500.000        3340.98     
  1519.23        500.000        3340.01     
  1516.03        500.000        3339.12     
  1512.82        500.000        3338.30     
  1509.62        500.000        3337.80     
  1506.41        500.000        3337.35     
  1503.21        500.000        3336.94     
  1500.00        500.000        3336.58     
  1496.79        500.000        3336.35     
  1493.59        500.000        3336.15     
  1490.38        500.000        3335.95     
  1487.18        500.000        3336.16     
  1483.97        500.000        3336.48     
  1480.77        500.000        3336.81     
  1477.56        500.000        3337.15     
  1474.36        500.000        3337.49     
  1471.15        500.000        3337.88     
  1467.95        500.000        3338.08     
  1464.74        500.000        3338.36     
  1461.54        500.000        3338.44     
  1458.33        500.000        3338.89     
  1455.13        500.000        3339.34     
  1451.92        500.000        3339.79     
  1448.72        500.000        3340.24     
  1445.51        500.000        3340.68     
  1442.31        500.000        3341.13     
  1439.10        500.000        3341.58     
  1435.90        500.000        3341.76     
  1432.69        500.000        3342.41     
  1429.49        500.000        3339.45     
  1426.28        500.000        3333.94     
  1423.08        500.000        3329.52     
  1419.87        500.000        3329.96     
  1416.67        500.000        3330.40     
  1413.46        500.000        3330.83     
  1410.26        500.000        3318.09     
  1407.05        500.000        3318.52     
  1403.85        500.000        3318.94     
  1400.64        500.000        3319.37     
  1397.44        500.000        3319.80     
  1394.23        500.000        3320.23     
  1391.03        500.000        3320.65     
  1387.82        500.000        3321.08     
  1384.62        500.000        3306.40     
  1381.41        500.000        3306.82     
  1378.21        500.000        3307.24     
  1375.00        500.000        3307.66     
  1371.79        500.000        3308.07     
  1368.59        500.000        3308.49     
  1365.38        500.000        3308.91     
  1362.18        500.000        3309.33     
  1358.97        500.000        3299.03     
  1355.77        500.000        3299.44     
  1352.56        500.000        3299.85     
  1349.36        500.000        3300.26     
  1346.15        500.000        3300.67     
  1342.95        500.000        3301.08     
  1339.74        500.000        3301.49     
  1336.54        500.000        3301.90     
  1333.33        500.000        3293.23     
  1330.13        500.000        3293.63     
  1326.92        500.000        3294.04     
  1323.72        500.000        3294.44     
  1320.51        500.000        3290.71     
  1317.31        500.000        3290.48     
  1314.10        500.000        3290.79     
  1310.90        500.000        3291.19     
  1307.69        500.000        3291.37     
  1304.49        500.000        3291.77     
  1301.28        500.000        3292.17     
  1298.08        500.000        3292.57     
  1294.87        500.000        3292.97     
  1291.67        500.000        3293.37     
  1288.46        500.000        3293.76     
  1285.26        500.000        3294.16     
  1282.05        500.000        3293.74     
  1278.85        500.000        3294.14     
  1275.64        500.000        3294.54     
  1272.44        500.000        3294.94     
  1269.23        500.000        3295.33     
  1266.03        500.000        3295.73     
  1262.82        500.000        3296.13     
  1259.62        500.000        3296.52     
  1256.41        500.000        3296.16     
  1253.21        500.000        3296.55     
  1250.00        500.000        3296.95     
  1246.79        500.000        3297.34     
  1243.59        500.000        3297.74     
  1240.38        500.000        3298.13     
  1237.18        500.000        3298.53     
  1233.97        500.000        3298.92     
  1230.77        500.000        3298.62     
  1227.56        500.000        3299.01     
  1224.36        500.000        3299.40     
  1221.15        500.000        3299.79     
  1217.95        500.000        3300.19     
  1214.74        500.000        3300.58     
  1211.54        500.000        3300.97     
  1208.33        500.000        3301.36     
  1205.13        500.000        3301.09     
  1201.92        500.000        3301.48     
  1198.72        500.000        3301.86     
  1195.51        500.000        3302.25     
  1192.31        500.000        3302.64     
  1189.10        500.000        3303.03     
  1185.90        500.000        3303.42     
  1182.69        500.000        3303.81     
  1179.49        500.000        3303.59     
  1176.28        500.000        3303.98     
  1173.08        500.000        3304.37     
  1169.87        500.000        3304.75     
  1166.67        500.000        3305.14     
  1163.46        500.000        3305.53     
  1160.26        500.000        3305.91     
  1157.05        500.000        3306.30     
  1153.85        500.000        3306.14     
  1150.64        500.000        3306.52     
  1147.44        500.000        3306.91     
  1144.23        500.000        3307.29     
  1141.03        500.000        3307.68     
  1137.82        500.000        3308.06     
  1134.62        500.000        3308.44     
  1131.41        500.000        3308.83     
  1128.21        500.000        3308.70     
  1125.00        500.000        3309.08     
  1121.79        500.000        3309.46     
  1118.59        500.000        3309.84     
  1115.38        500.000        3310.22     
  1112.18        500.000        3310.60     
  1108.97        500.000        3310.99     
  1105.77        500.000        3311.37     
  1102.56        500.000        3311.27     
  1099.36        500.000        3311.65     
  1096.15        500.000        3312.03     
  1092.95        500.000        3312.41     
  1089.74        500.000        3312.79     
  1086.54        500.000        3313.17     
  1083.33        500.000        3313.55     
  1080.13        500.000        3313.92     
  1076.92        500.000        3313.85     
  1073.72        500.000        3314.22     
  1070.51        500.000        3314.60     
  1067.31        500.000        3314.98     
  1064.10        500.000        3315.36     
  1060.90        500.000        3315.73     
  1057.69        500.000        3316.11     
  1054.49        500.000        3316.48     
  1051.28        500.000        3316.43     
  1048.08        500.000        3316.81     
  1044.87        500.000        3317.18     
  1041.67        500.000        3317.56     
  1038.46        500.000        3317.93     
  1035.26        500.000        3318.30     
  1032.05        500.000        3318.68     
  1028.85        500.000        3319.05     
  1025.64        500.000        3319.03     
  1022.44        500.000        3319.40     
  1019.23        500.000        3319.77     
  1016.03        500.000        3320.15     
  1012.82        500.000        3320.52     
  1009.62        500.000        3320.89     
  1006.41        500.000        3321.26     
  1003.21        500.000        3321.63     
  1000.00        500.000        3321.64     
