|6.6.6
Archiving\03_Data\eqLP/QFM_m0.5/YM20/YM20_6.tab                         
           1
T(K)    
  0.000000000000000E+000
  0.000000000000000E+000
           0
           3
T(K)           P(bar)         rho,kg/m3     
  2000.00        500.000        5145.98     
  1996.79        500.000        5146.94     
  1993.59        500.000        5147.91     
  1990.38        500.000        5148.87     
  1987.18        500.000        4027.05     
  1983.97        500.000        4013.15     
  1980.77        500.000        3999.70     
  1977.56        500.000        3986.69     
  1974.36        500.000        3974.11     
  1971.15        500.000        3955.42     
  1967.95        500.000        3937.59     
  1964.74        500.000        3920.56     
  1961.54        500.000        3904.28     
  1958.33        500.000        3888.70     
  1955.13        500.000        3873.78     
  1951.92        500.000        3859.48     
  1948.72        500.000        3845.76     
  1945.51        500.000        3818.25     
  1942.31        500.000        3792.85     
  1939.10        500.000        3769.35     
  1935.90        500.000        3747.53     
  1932.69        500.000        3727.24     
  1929.49        500.000        3708.31     
  1926.28        500.000        3690.62     
  1923.08        500.000        3674.05     
  1919.87        500.000        3633.56     
  1916.67        500.000        3598.91     
  1913.46        500.000        3568.93     
  1910.26        500.000        3542.76     
  1907.05        500.000        3519.72     
  1903.85        500.000        3499.29     
  1900.64        500.000        3481.06     
  1897.44        500.000        3464.70     
  1894.23        500.000        3434.53     
  1891.03        500.000        3409.73     
  1887.82        500.000        3383.37     
  1884.62        500.000        3328.64     
  1881.41        500.000        3273.79     
  1878.21        500.000        3229.84     
  1875.00        500.000        3225.88     
  1871.79        500.000        3222.80     
  1868.59        500.000        3220.29     
  1865.38        500.000        3218.35     
  1862.18        500.000        3216.83     
  1858.97        500.000        3215.63     
  1855.77        500.000        3214.67     
  1852.56        500.000        3213.92     
  1849.36        500.000        3213.32     
  1846.15        500.000        3212.85     
  1842.95        500.000        3213.57     
  1839.74        500.000        3214.26     
  1836.54        500.000        3214.93     
  1833.33        500.000        3215.58     
  1830.13        500.000        3216.21     
  1826.92        500.000        3216.82     
  1823.72        500.000        3217.43     
  1820.51        500.000        3218.02     
  1817.31        500.000        3219.45     
  1814.10        500.000        3220.80     
  1810.90        500.000        3222.09     
  1807.69        500.000        3223.33     
  1804.49        500.000        3224.51     
  1801.28        500.000        3225.64     
  1798.08        500.000        3226.74     
  1794.87        500.000        3227.79     
  1791.67        500.000        3229.41     
  1788.46        500.000        3230.96     
  1785.26        500.000        3232.45     
  1782.05        500.000        3233.89     
  1778.85        500.000        3235.28     
  1775.64        500.000        3236.62     
  1772.44        500.000        3237.92     
  1769.23        500.000        3239.19     
  1766.03        500.000        3240.83     
  1762.82        500.000        3242.42     
  1759.62        500.000        3243.96     
  1756.41        500.000        3245.45     
  1753.21        500.000        3246.91     
  1750.00        500.000        3248.32     
  1746.79        500.000        3249.70     
  1743.59        500.000        3251.04     
  1740.38        500.000        3252.62     
  1737.18        500.000        3254.16     
  1733.97        500.000        3255.66     
  1730.77        500.000        3257.12     
  1727.56        500.000        3258.55     
  1724.36        500.000        3259.95     
  1721.15        500.000        3261.32     
  1717.95        500.000        3262.66     
  1714.74        500.000        3264.14     
  1711.54        500.000        3265.60     
  1708.33        500.000        3267.02     
  1705.13        500.000        3268.42     
  1701.92        500.000        3269.79     
  1698.72        500.000        3271.13     
  1695.51        500.000        3272.45     
  1692.31        500.000        3273.74     
  1689.10        500.000        3275.09     
  1685.90        500.000        3276.41     
  1682.69        500.000        3277.72     
  1679.49        500.000        3279.00     
  1676.28        500.000        3280.26     
  1673.08        500.000        3281.50     
  1669.87        500.000        3282.72     
  1666.67        500.000        3283.93     
  1663.46        500.000        3285.15     
  1660.26        500.000        3286.36     
  1657.05        500.000        3287.54     
  1653.85        500.000        3288.72     
  1650.64        500.000        3289.88     
  1647.44        500.000        3291.02     
  1644.23        500.000        3292.15     
  1641.03        500.000        3293.26     
  1637.82        500.000        3294.35     
  1634.62        500.000        3295.43     
  1631.41        500.000        3296.49     
  1628.21        500.000        3297.55     
  1625.00        500.000        3298.59     
  1621.79        500.000        3299.63     
  1618.59        500.000        3300.65     
  1615.38        500.000        3301.66     
  1612.18        500.000        3302.64     
  1608.97        500.000        3303.60     
  1605.77        500.000        3304.56     
  1602.56        500.000        3305.51     
  1599.36        500.000        3306.46     
  1596.15        500.000        3307.39     
  1592.95        500.000        3308.32     
  1589.74        500.000        3309.24     
  1586.54        500.000        3310.07     
  1583.33        500.000        3309.24     
  1580.13        500.000        3308.43     
  1576.92        500.000        3307.67     
  1573.72        500.000        3307.10     
  1570.51        500.000        3306.56     
  1567.31        500.000        3306.06     
  1564.10        500.000        3305.58     
  1560.90        500.000        3305.34     
  1557.69        500.000        3305.11     
  1554.49        500.000        3304.90     
  1551.28        500.000        3304.71     
  1548.08        500.000        3304.52     
  1544.87        500.000        3304.36     
  1541.67        500.000        3304.21     
  1538.46        500.000        3304.07     
  1535.26        500.000        3304.09     
  1532.05        500.000        3304.11     
  1528.85        500.000        3304.15     
  1525.64        500.000        3304.19     
  1522.44        500.000        3304.24     
  1519.23        500.000        3304.30     
  1516.03        500.000        3304.36     
  1512.82        500.000        3304.43     
  1509.62        500.000        3304.57     
  1506.41        500.000        3304.72     
  1503.21        500.000        3304.88     
  1500.00        500.000        3305.04     
  1496.79        500.000        3305.20     
  1493.59        500.000        3305.36     
  1490.38        500.000        3305.53     
  1487.18        500.000        3305.71     
  1483.97        500.000        3305.92     
  1480.77        500.000        3306.13     
  1477.56        500.000        3306.35     
  1474.36        500.000        3306.57     
  1471.15        500.000        3306.79     
  1467.95        500.000        3307.02     
  1464.74        500.000        3307.25     
  1461.54        500.000        3307.48     
  1458.33        500.000        3307.72     
  1455.13        500.000        3307.97     
  1451.92        500.000        3308.22     
  1448.72        500.000        3308.48     
  1445.51        500.000        3308.83     
  1442.31        500.000        3309.18     
  1439.10        500.000        3309.53     
  1435.90        500.000        3309.88     
  1432.69        500.000        3310.28     
  1429.49        500.000        3310.67     
  1426.28        500.000        3311.07     
  1423.08        500.000        3311.46     
  1419.87        500.000        3311.88     
  1416.67        500.000        3312.31     
  1413.46        500.000        3312.73     
  1410.26        500.000        3311.97     
  1407.05        500.000        3310.96     
  1403.85        500.000        3309.96     
  1400.64        500.000        3309.14     
  1397.44        500.000        3308.37     
  1394.23        500.000        3308.80     
  1391.03        500.000        3309.24     
  1387.82        500.000        3309.67     
  1384.62        500.000        3305.56     
  1381.41        500.000        3305.99     
  1378.21        500.000        3306.42     
  1375.00        500.000        3306.85     
  1371.79        500.000        3307.29     
  1368.59        500.000        3307.72     
  1365.38        500.000        3308.15     
  1362.18        500.000        3308.58     
  1358.97        500.000        3302.26     
  1355.77        500.000        3302.68     
  1352.56        500.000        3303.11     
  1349.36        500.000        3303.53     
  1346.15        500.000        3303.96     
  1342.95        500.000        3304.39     
  1339.74        500.000        3304.81     
  1336.54        500.000        3305.24     
  1333.33        500.000        3300.51     
  1330.13        500.000        3300.93     
  1326.92        500.000        3301.35     
  1323.72        500.000        3301.77     
  1320.51        500.000        3302.19     
  1317.31        500.000        3302.61     
  1314.10        500.000        3303.03     
  1310.90        500.000        3303.45     
  1307.69        500.000        3299.61     
  1304.49        500.000        3300.02     
  1301.28        500.000        3299.48     
  1298.08        500.000        3299.43     
  1294.87        500.000        3261.65     
  1291.67        500.000        3261.14     
  1288.46        500.000        3261.47     
  1285.26        500.000        3261.88     
  1282.05        500.000        3262.14     
  1278.85        500.000        3262.54     
  1275.64        500.000        3262.95     
  1272.44        500.000        3263.35     
  1269.23        500.000        3263.76     
  1266.03        500.000        3264.16     
  1262.82        500.000        3264.57     
  1259.62        500.000        3264.97     
  1256.41        500.000        3264.82     
  1253.21        500.000        3265.23     
  1250.00        500.000        3265.63     
  1246.79        500.000        3266.03     
  1243.59        500.000        3266.44     
  1240.38        500.000        3266.84     
  1237.18        500.000        3267.24     
  1233.97        500.000        3267.64     
  1230.77        500.000        3267.54     
  1227.56        500.000        3267.94     
  1224.36        500.000        3268.34     
  1221.15        500.000        3268.74     
  1217.95        500.000        3269.14     
  1214.74        500.000        3269.54     
  1211.54        500.000        3269.94     
  1208.33        500.000        3270.34     
  1205.13        500.000        3270.28     
  1201.92        500.000        3270.68     
  1198.72        500.000        3271.07     
  1195.51        500.000        3271.47     
  1192.31        500.000        3271.87     
  1189.10        500.000        3272.27     
  1185.90        500.000        3272.67     
  1182.69        500.000        3273.06     
  1179.49        500.000        3273.04     
  1176.28        500.000        3273.44     
  1173.08        500.000        3273.83     
  1169.87        500.000        3274.23     
  1166.67        500.000        3274.62     
  1163.46        500.000        3275.02     
  1160.26        500.000        3275.42     
  1157.05        500.000        3275.81     
  1153.85        500.000        3275.82     
  1150.64        500.000        3276.22     
  1147.44        500.000        3276.61     
  1144.23        500.000        3277.00     
  1141.03        500.000        3277.40     
  1137.82        500.000        3277.79     
  1134.62        500.000        3278.18     
  1131.41        500.000        3278.58     
  1128.21        500.000        3278.63     
  1125.00        500.000        3279.02     
  1121.79        500.000        3279.42     
  1118.59        500.000        3279.81     
  1115.38        500.000        3280.20     
  1112.18        500.000        3280.59     
  1108.97        500.000        3280.98     
  1105.77        500.000        3281.37     
  1102.56        500.000        3281.46     
  1099.36        500.000        3281.85     
  1096.15        500.000        3282.24     
  1092.95        500.000        3282.63     
  1089.74        500.000        3283.02     
  1086.54        500.000        3283.41     
  1083.33        500.000        3283.80     
  1080.13        500.000        3284.19     
  1076.92        500.000        3284.32     
  1073.72        500.000        3284.71     
  1070.51        500.000        3285.10     
  1067.31        500.000        3285.48     
  1064.10        500.000        3285.87     
  1060.90        500.000        3286.26     
  1057.69        500.000        3286.64     
  1054.49        500.000        3287.03     
  1051.28        500.000        3287.20     
  1048.08        500.000        3287.57     
  1044.87        500.000        3287.94     
  1041.67        500.000        3288.31     
  1038.46        500.000        3288.68     
  1035.26        500.000        3289.07     
  1032.05        500.000        3289.46     
  1028.85        500.000        3289.85     
  1025.64        500.000        3290.13     
  1022.44        500.000        3290.52     
  1019.23        500.000        3290.91     
  1016.03        500.000        3291.30     
  1012.82        500.000        3291.69     
  1009.62        500.000        3292.07     
  1006.41        500.000        3292.46     
  1003.21        500.000        3292.85     
  1000.00        500.000        3293.05     
