|6.6.6
Archiving\03_Data\eq/QFM_m4.5/GRV/GRV_3.tab                               
           1
T(K)    
  0.000000000000000E+000
  0.000000000000000E+000
           0
           9
T(K)           P(bar)         melt(TH)       pxmn           Sp(TH)         O(HP)          Opx(TH)        Cpx(TH)        Cpx(TH)       
  2000.00        2500.00        99.3191       0.680878                 NaN            NaN            NaN            NaN            NaN
  1996.79        2500.00        99.3190       0.680952                 NaN            NaN            NaN            NaN            NaN
  1993.59        2500.00        99.3190       0.681026                 NaN            NaN            NaN            NaN            NaN
  1990.38        2500.00        99.3189       0.681100                 NaN            NaN            NaN            NaN            NaN
  1987.18        2500.00        99.3188       0.681174                 NaN            NaN            NaN            NaN            NaN
  1983.97        2500.00        99.3188       0.681248                 NaN            NaN            NaN            NaN            NaN
  1980.77        2500.00        99.3187       0.681323                 NaN            NaN            NaN            NaN            NaN
  1977.56        2500.00        99.3186       0.681397                 NaN            NaN            NaN            NaN            NaN
  1974.36        2500.00        99.3185       0.681472                 NaN            NaN            NaN            NaN            NaN
  1971.15        2500.00        99.3185       0.681546                 NaN            NaN            NaN            NaN            NaN
  1967.95        2500.00        99.3184       0.681621                 NaN            NaN            NaN            NaN            NaN
  1964.74        2500.00        99.3183       0.681695                 NaN            NaN            NaN            NaN            NaN
  1961.54        2500.00        99.3182       0.681770                 NaN            NaN            NaN            NaN            NaN
  1958.33        2500.00        99.3182       0.681845                 NaN            NaN            NaN            NaN            NaN
  1955.13        2500.00        99.3181       0.681920                 NaN            NaN            NaN            NaN            NaN
  1951.92        2500.00        99.3180       0.681995                 NaN            NaN            NaN            NaN            NaN
  1948.72        2500.00        99.3179       0.682070                 NaN            NaN            NaN            NaN            NaN
  1945.51        2500.00        99.3179       0.682145                 NaN            NaN            NaN            NaN            NaN
  1942.31        2500.00        99.3178       0.682220                 NaN            NaN            NaN            NaN            NaN
  1939.10        2500.00        99.3177       0.682295                 NaN            NaN            NaN            NaN            NaN
  1935.90        2500.00        99.3176       0.682371                 NaN            NaN            NaN            NaN            NaN
  1932.69        2500.00        99.3176       0.682446                 NaN            NaN            NaN            NaN            NaN
  1929.49        2500.00        99.3175       0.682521                 NaN            NaN            NaN            NaN            NaN
  1926.28        2500.00        99.3174       0.682597                 NaN            NaN            NaN            NaN            NaN
  1923.08        2500.00        99.3173       0.682672                 NaN            NaN            NaN            NaN            NaN
  1919.87        2500.00        99.3173       0.682748                 NaN            NaN            NaN            NaN            NaN
  1916.67        2500.00        99.3172       0.682824                 NaN            NaN            NaN            NaN            NaN
  1913.46        2500.00        99.3171       0.682899                 NaN            NaN            NaN            NaN            NaN
  1910.26        2500.00        99.3170       0.682975                 NaN            NaN            NaN            NaN            NaN
  1907.05        2500.00        99.3169       0.683051                 NaN            NaN            NaN            NaN            NaN
  1903.85        2500.00        99.3169       0.683127                 NaN            NaN            NaN            NaN            NaN
  1900.64        2500.00        99.3168       0.683203                 NaN            NaN            NaN            NaN            NaN
  1897.44        2500.00        99.3167       0.683279                 NaN            NaN            NaN            NaN            NaN
  1894.23        2500.00        99.3166       0.683355                 NaN            NaN            NaN            NaN            NaN
  1891.03        2500.00        99.3166       0.683431                 NaN            NaN            NaN            NaN            NaN
  1887.82        2500.00        99.3165       0.683507                 NaN            NaN            NaN            NaN            NaN
  1884.62        2500.00        99.3164       0.683584                 NaN            NaN            NaN            NaN            NaN
  1881.41        2500.00        99.3163       0.683660                 NaN            NaN            NaN            NaN            NaN
  1878.21        2500.00        99.3163       0.683736                 NaN            NaN            NaN            NaN            NaN
  1875.00        2500.00        99.3162       0.683813                 NaN            NaN            NaN            NaN            NaN
  1871.79        2500.00        99.3161       0.683889                 NaN            NaN            NaN            NaN            NaN
  1868.59        2500.00        99.3160       0.683966                 NaN            NaN            NaN            NaN            NaN
  1865.38        2500.00        99.3160       0.684043                 NaN            NaN            NaN            NaN            NaN
  1862.18        2500.00        99.3159       0.684120                 NaN            NaN            NaN            NaN            NaN
  1858.97        2500.00        99.3158       0.684196                 NaN            NaN            NaN            NaN            NaN
  1855.77        2500.00        99.3157       0.684273                 NaN            NaN            NaN            NaN            NaN
  1852.56        2500.00        99.3156       0.684350                 NaN            NaN            NaN            NaN            NaN
  1849.36        2500.00        99.3156       0.684427                 NaN            NaN            NaN            NaN            NaN
  1846.15        2500.00        99.3155       0.684504                 NaN            NaN            NaN            NaN            NaN
  1842.95        2500.00        99.3154       0.684581                 NaN            NaN            NaN            NaN            NaN
  1839.74        2500.00        99.3153       0.684659                 NaN            NaN            NaN            NaN            NaN
  1836.54        2500.00        99.3153       0.684736                 NaN            NaN            NaN            NaN            NaN
  1833.33        2500.00        99.3152       0.684813                 NaN            NaN            NaN            NaN            NaN
  1830.13        2500.00        99.3151       0.684890                 NaN            NaN            NaN            NaN            NaN
  1826.92        2500.00        99.3150       0.684968                 NaN            NaN            NaN            NaN            NaN
  1823.72        2500.00        99.3150       0.685045                 NaN            NaN            NaN            NaN            NaN
  1820.51        2500.00        99.3149       0.685123                 NaN            NaN            NaN            NaN            NaN
  1817.31        2500.00        99.3148       0.685201                 NaN            NaN            NaN            NaN            NaN
  1814.10        2500.00        99.3069       0.685289       0.784830E-002            NaN            NaN            NaN            NaN
  1810.90        2500.00        99.2936       0.685386       0.209992E-001            NaN            NaN            NaN            NaN
  1807.69        2500.00        99.2804       0.685482       0.341541E-001            NaN            NaN            NaN            NaN
  1804.49        2500.00        99.2675       0.685578       0.469486E-001            NaN            NaN            NaN            NaN
  1801.28        2500.00        99.2546       0.685674       0.597468E-001            NaN            NaN            NaN            NaN
  1798.08        2500.00        99.2417       0.685770       0.725488E-001            NaN            NaN            NaN            NaN
  1794.87        2500.00        99.2288       0.685866       0.853547E-001            NaN            NaN            NaN            NaN
  1791.67        2500.00        99.2164       0.685961       0.976862E-001            NaN            NaN            NaN            NaN
  1788.46        2500.00        99.2039       0.686056       0.110021                 NaN            NaN            NaN            NaN
  1785.26        2500.00        99.1915       0.686152       0.122360                 NaN            NaN            NaN            NaN
  1782.05        2500.00        99.1791       0.686247       0.134703                 NaN            NaN            NaN            NaN
  1778.85        2500.00        99.1670       0.686342       0.146704                 NaN            NaN            NaN            NaN
  1775.64        2500.00        99.1549       0.686437       0.158709                 NaN            NaN            NaN            NaN
  1772.44        2500.00        98.4555       0.686771       0.170809       0.686905                 NaN            NaN            NaN
  1769.23        2500.00        97.6795       0.687130       0.182975        1.45043                 NaN            NaN            NaN
  1766.03        2500.00        96.8995       0.687488       0.194565        2.21848                 NaN            NaN            NaN
  1762.82        2500.00        96.1187       0.687845       0.206167        2.98729                 NaN            NaN            NaN
  1759.62        2500.00        95.3372       0.688199       0.217780        3.75686                 NaN            NaN            NaN
  1756.41        2500.00        94.5549       0.688551       0.229404        4.52719                 NaN            NaN            NaN
  1753.21        2500.00        93.7718       0.688901       0.241040        5.29825                 NaN            NaN            NaN
  1750.00        2500.00        92.9880       0.689249       0.252687        6.07006                 NaN            NaN            NaN
  1746.79        2500.00        92.2035       0.689596       0.264345        6.84260                 NaN            NaN            NaN
  1743.59        2500.00        91.4182       0.689940       0.276014        7.61587                 NaN            NaN            NaN
  1740.38        2500.00        90.6348       0.690280       0.286766        8.38816                 NaN            NaN            NaN
  1737.18        2500.00        89.8507       0.690618       0.297528        9.16117                 NaN            NaN            NaN
  1733.97        2500.00        89.0659       0.690954       0.308300        9.93487                 NaN            NaN            NaN
  1730.77        2500.00        88.2804       0.691288       0.319081        10.7093                 NaN            NaN            NaN
  1727.56        2500.00        87.4942       0.691620       0.329872        11.4843                 NaN            NaN            NaN
  1724.36        2500.00        86.7073       0.691949       0.340672        12.2601                 NaN            NaN            NaN
  1721.15        2500.00        85.9198       0.692276       0.351481        13.0365                 NaN            NaN            NaN
  1717.95        2500.00        85.1316       0.692600       0.362299        13.8135                 NaN            NaN            NaN
  1714.74        2500.00        84.3672       0.692913       0.372220        14.5677                 NaN            NaN            NaN
  1711.54        2500.00        83.6021       0.693223       0.382149        15.3225                 NaN            NaN            NaN
  1708.33        2500.00        82.8365       0.693531       0.392085        16.0779                 NaN            NaN            NaN
  1705.13        2500.00        82.0703       0.693836       0.402029        16.8338                 NaN            NaN            NaN
  1701.92        2500.00        81.3036       0.694139       0.411980        17.5903                 NaN            NaN            NaN
  1698.72        2500.00        80.5362       0.694439       0.421938        18.3474                 NaN            NaN            NaN
  1695.51        2500.00        79.7683       0.694736       0.431903        19.1050                 NaN            NaN            NaN
  1692.31        2500.00        78.9999       0.695031       0.441875        19.8632                 NaN            NaN            NaN
  1689.10        2500.00        78.2646       0.695312       0.451263        20.5888                 NaN            NaN            NaN
  1685.90        2500.00        77.5289       0.695589       0.460656        21.3148                 NaN            NaN            NaN
  1682.69        2500.00        76.7928       0.695864       0.470055        22.0413                 NaN            NaN            NaN
  1679.49        2500.00        76.0561       0.696136       0.479460        22.7683                 NaN            NaN            NaN
  1676.28        2500.00        75.3401       0.696400       0.488525        23.4750                 NaN            NaN            NaN
  1673.08        2500.00        74.6236       0.696660       0.497595        24.1821                 NaN            NaN            NaN
  1669.87        2500.00        72.6564       0.698122       0.505180        24.5055        1.63482                 NaN            NaN
  1666.67        2500.00        70.5892       0.699701       0.511837        24.7595        3.43972                 NaN            NaN
  1663.46        2500.00        68.8797       0.701030       0.515690        24.9531        4.95046                 NaN            NaN
  1660.26        2500.00        67.1638       0.702363       0.519557        25.1474        6.46689                 NaN            NaN
  1657.05        2500.00        65.4416       0.703699       0.523436        25.3423        7.98901                 NaN            NaN
  1653.85        2500.00        63.7129       0.705038       0.527329        25.5379        9.51686                 NaN            NaN
  1650.64        2500.00        61.9778       0.706380       0.531236        25.7341        11.0505                 NaN            NaN
  1647.44        2500.00        60.2363       0.707725       0.535156        25.9310        12.5898                 NaN            NaN
  1644.23        2500.00        58.4883       0.709073       0.539089        26.1286        14.1350                 NaN            NaN
  1641.03        2500.00        56.7337       0.710424       0.543036        26.3269        15.6859                 NaN            NaN
  1637.82        2500.00        55.4193       0.711474       0.542920        26.4504        16.8759                 NaN            NaN
  1634.62        2500.00        54.1011       0.712525       0.542803        26.5742        18.0694                 NaN            NaN
  1631.41        2500.00        52.7791       0.713578       0.542684        26.6983        19.2664                 NaN            NaN
  1628.21        2500.00        51.4534       0.714632       0.542564        26.8227        20.4667                 NaN            NaN
  1625.00        2500.00        50.1238       0.715689       0.542443        26.9474        21.6706                 NaN            NaN
  1621.79        2500.00        48.7905       0.716747       0.542320        27.0725        22.8779                 NaN            NaN
  1618.59        2500.00        47.4534       0.717807       0.542196        27.1978        24.0888                 NaN            NaN
  1615.38        2500.00        46.1125       0.718868       0.542070        27.3235        25.3031                 NaN            NaN
  1612.18        2500.00        45.0126       0.719768       0.537778        27.4103        26.3196                 NaN            NaN
  1608.97        2500.00        43.9100       0.720669       0.533474        27.4973        27.3385                 NaN            NaN
  1605.77        2500.00        42.8048       0.721571       0.529159        27.5845        28.3599                 NaN            NaN
  1602.56        2500.00        41.6970       0.722475       0.524832        27.6719        29.3838                 NaN            NaN
  1599.36        2500.00        40.5865       0.723380       0.520494        27.7594        30.4102                 NaN            NaN
  1596.15        2500.00        39.4734       0.724286       0.516144        27.8472        31.4390                 NaN            NaN
  1592.95        2500.00        38.3576       0.725193       0.511782        27.9351        32.4703                 NaN            NaN
  1589.74        2500.00        37.2392       0.726101       0.507409        28.0231        33.5041                 NaN            NaN
  1586.54        2500.00        36.2147       0.726950       0.498966        28.0998        34.4596                 NaN            NaN
  1583.33        2500.00        35.1880       0.727800       0.490503        28.1765        35.4172                 NaN            NaN
  1580.13        2500.00        34.1589       0.728651       0.482020        28.2534        36.3770                 NaN            NaN
  1576.92        2500.00        33.1276       0.729503       0.473516        28.3305        37.3389                 NaN            NaN
  1573.72        2500.00        32.1013       0.730360       0.463271        28.4087        38.2963                 NaN            NaN
  1570.51        2500.00        30.8508       0.731388       0.467066        28.4817        37.7098        1.75924                 NaN
  1567.31        2500.00        29.5602       0.732465       0.471066        28.5590        37.0420        3.63529                 NaN
  1564.10        2500.00        28.2660       0.733543       0.475078        28.6365        36.3721        5.51682                 NaN
  1560.90        2500.00        26.9617       0.734659       0.475796        28.7289        35.9105        7.18844                 NaN
  1557.69        2500.00        25.6537       0.735776       0.476516        28.8216        35.4473        8.86511                 NaN
  1554.49        2500.00        24.3418       0.736896       0.477239        28.9145        34.9827        10.5468                 NaN
  1551.28        2500.00        23.0262       0.738017       0.477964        29.0077        34.5165        12.2336                 NaN
  1548.08        2500.00        21.7705       0.739117       0.473798        29.1081        34.3660        13.5425                 NaN
  1544.87        2500.00        20.5112       0.740219       0.469619        29.2087        34.2150        14.8553                 NaN
  1541.67        2500.00        19.2113       0.741390       0.447259        29.3480        35.1405        13.6127        1.49880     
  1538.46        2500.00        18.0048       0.742482       0.426210        29.4745        35.9315        12.5585        2.86205     
