|6.6.6
Archiving\03_Data\DeqLP/QFM_m3.25/YM20/YM20_6.tab                       
           1
T(K)    
  0.000000000000000E+000
  0.000000000000000E+000
           0
           3
T(K)           P(bar)         rho,kg/m3     
  2000.00        500.000        8099.88     
  1996.79        500.000        8101.72     
  1993.59        500.000        8103.55     
  1990.38        500.000        8105.38     
  1987.18        500.000        8107.21     
  1983.97        500.000        8109.03     
  1980.77        500.000        8110.86     
  1977.56        500.000        8112.68     
  1974.36        500.000        8114.50     
  1971.15        500.000        8116.32     
  1967.95        500.000        8118.14     
  1964.74        500.000        8119.96     
  1961.54        500.000        8121.78     
  1958.33        500.000        8123.59     
  1955.13        500.000        8125.41     
  1951.92        500.000        8127.22     
  1948.72        500.000        8129.03     
  1945.51        500.000        8130.84     
  1942.31        500.000        8132.64     
  1939.10        500.000        8134.45     
  1935.90        500.000        8136.25     
  1932.69        500.000        8138.06     
  1929.49        500.000        8139.86     
  1926.28        500.000        8141.66     
  1923.08        500.000        8143.46     
  1919.87        500.000        8145.25     
  1916.67        500.000        8147.05     
  1913.46        500.000        3231.64     
  1910.26        500.000        3188.98     
  1907.05        500.000        3177.68     
  1903.85        500.000        3172.11     
  1900.64        500.000        3168.91     
  1897.44        500.000        3166.92     
  1894.23        500.000        3166.30     
  1891.03        500.000        3166.50     
  1887.82        500.000        3167.36     
  1884.62        500.000        3169.12     
  1881.41        500.000        3170.49     
  1878.21        500.000        3173.86     
  1875.00        500.000        3176.66     
  1871.79        500.000        3179.17     
  1868.59        500.000        3182.27     
  1865.38        500.000        3185.09     
  1862.18        500.000        3187.66     
  1858.97        500.000        3190.02     
  1855.77        500.000        3192.20     
  1852.56        500.000        3194.23     
  1849.36        500.000        3196.12     
  1846.15        500.000        3197.90     
  1842.95        500.000        3200.42     
  1839.74        500.000        3202.79     
  1836.54        500.000        3205.03     
  1833.33        500.000        3207.15     
  1830.13        500.000        3209.16     
  1826.92        500.000        3211.07     
  1823.72        500.000        3212.89     
  1820.51        500.000        3214.64     
  1817.31        500.000        3216.86     
  1814.10        500.000        3219.00     
  1810.90        500.000        3221.04     
  1807.69        500.000        3223.01     
  1804.49        500.000        3224.90     
  1801.28        500.000        3226.72     
  1798.08        500.000        3228.47     
  1794.87        500.000        3230.17     
  1791.67        500.000        3232.20     
  1788.46        500.000        3234.17     
  1785.26        500.000        3236.07     
  1782.05        500.000        3237.92     
  1778.85        500.000        3239.71     
  1775.64        500.000        3241.44     
  1772.44        500.000        3243.13     
  1769.23        500.000        3244.78     
  1766.03        500.000        3246.62     
  1762.82        500.000        3248.42     
  1759.62        500.000        3250.17     
  1756.41        500.000        3251.88     
  1753.21        500.000        3253.55     
  1750.00        500.000        3255.17     
  1746.79        500.000        3256.76     
  1743.59        500.000        3258.32     
  1740.38        500.000        3259.96     
  1737.18        500.000        3261.57     
  1733.97        500.000        3263.14     
  1730.77        500.000        3264.68     
  1727.56        500.000        3266.19     
  1724.36        500.000        3267.67     
  1721.15        500.000        3269.13     
  1717.95        500.000        3270.55     
  1714.74        500.000        3272.00     
  1711.54        500.000        3273.43     
  1708.33        500.000        3274.83     
  1705.13        500.000        3276.21     
  1701.92        500.000        3277.56     
  1698.72        500.000        3278.90     
  1695.51        500.000        3280.21     
  1692.31        500.000        3281.50     
  1689.10        500.000        3282.76     
  1685.90        500.000        3284.01     
  1682.69        500.000        3285.24     
  1679.49        500.000        3286.45     
  1676.28        500.000        3287.64     
  1673.08        500.000        3288.82     
  1669.87        500.000        3289.99     
  1666.67        500.000        3291.14     
  1663.46        500.000        3292.23     
  1660.26        500.000        3293.31     
  1657.05        500.000        3294.38     
  1653.85        500.000        3295.43     
  1650.64        500.000        3296.47     
  1647.44        500.000        3297.51     
  1644.23        500.000        3298.53     
  1641.03        500.000        3299.54     
  1637.82        500.000        3300.49     
  1634.62        500.000        3301.43     
  1631.41        500.000        3302.36     
  1628.21        500.000        3303.28     
  1625.00        500.000        3304.20     
  1621.79        500.000        3305.11     
  1618.59        500.000        3306.01     
  1615.38        500.000        3306.90     
  1612.18        500.000        3306.16     
  1608.97        500.000        3305.07     
  1605.77        500.000        3304.16     
  1602.56        500.000        3303.29     
  1599.36        500.000        3302.64     
  1596.15        500.000        3302.02     
  1592.95        500.000        3301.44     
  1589.74        500.000        3300.88     
  1586.54        500.000        3300.60     
  1583.33        500.000        3300.33     
  1580.13        500.000        3300.07     
  1576.92        500.000        3299.84     
  1573.72        500.000        3299.62     
  1570.51        500.000        3299.41     
  1567.31        500.000        3299.22     
  1564.10        500.000        3299.05     
  1560.90        500.000        3299.04     
  1557.69        500.000        3299.05     
  1554.49        500.000        3299.06     
  1551.28        500.000        3299.08     
  1548.08        500.000        3299.11     
  1544.87        500.000        3299.14     
  1541.67        500.000        3299.18     
  1538.46        500.000        3299.23     
  1535.26        500.000        3299.36     
  1532.05        500.000        3299.49     
  1528.85        500.000        3299.63     
  1525.64        500.000        3299.77     
  1522.44        500.000        3299.91     
  1519.23        500.000        3300.06     
  1516.03        500.000        3300.22     
  1512.82        500.000        3300.37     
  1509.62        500.000        3300.57     
  1506.41        500.000        3300.77     
  1503.21        500.000        3300.97     
  1500.00        500.000        3301.17     
  1496.79        500.000        3301.38     
  1493.59        500.000        3301.59     
  1490.38        500.000        3301.81     
  1487.18        500.000        3302.03     
  1483.97        500.000        3302.26     
  1480.77        500.000        3302.50     
  1477.56        500.000        3302.75     
  1474.36        500.000        3303.00     
  1471.15        500.000        3303.35     
  1467.95        500.000        3303.69     
  1464.74        500.000        3304.04     
  1461.54        500.000        3304.39     
  1458.33        500.000        3304.79     
  1455.13        500.000        3305.20     
  1451.92        500.000        3305.61     
  1448.72        500.000        3306.01     
  1445.51        500.000        3304.02     
  1442.31        500.000        3302.23     
  1439.10        500.000        3302.67     
  1435.90        500.000        3299.60     
  1432.69        500.000        3300.04     
  1429.49        500.000        3300.48     
  1426.28        500.000        3300.91     
  1423.08        500.000        3301.35     
  1419.87        500.000        3301.79     
  1416.67        500.000        3302.23     
  1413.46        500.000        3302.66     
  1410.26        500.000        3294.96     
  1407.05        500.000        3295.40     
  1403.85        500.000        3295.83     
  1400.64        500.000        3296.26     
  1397.44        500.000        3296.69     
  1394.23        500.000        3297.12     
  1391.03        500.000        3297.55     
  1387.82        500.000        3297.98     
  1384.62        500.000        3293.66     
  1381.41        500.000        3294.09     
  1378.21        500.000        3294.52     
  1375.00        500.000        3294.94     
  1371.79        500.000        3295.37     
  1368.59        500.000        3295.80     
  1365.38        500.000        3296.22     
  1362.18        500.000        3296.65     
  1358.97        500.000        3293.45     
  1355.77        500.000        3293.87     
  1352.56        500.000        3294.29     
  1349.36        500.000        3294.72     
  1346.15        500.000        3295.14     
  1342.95        500.000        3295.56     
  1339.74        500.000        3295.98     
  1336.54        500.000        3296.40     
  1333.33        500.000        3293.76     
  1330.13        500.000        3294.18     
  1326.92        500.000        3294.60     
  1323.72        500.000        3295.02     
  1320.51        500.000        3295.44     
  1317.31        500.000        3295.86     
  1314.10        500.000        3296.27     
  1310.90        500.000        3296.69     
  1307.69        500.000        3294.42     
  1304.49        500.000        3294.83     
  1301.28        500.000        3294.64     
  1298.08        500.000        3289.60     
  1294.87        500.000        3289.96     
  1291.67        500.000        3290.37     
  1288.46        500.000        3290.79     
  1285.26        500.000        3291.20     
  1282.05        500.000        3291.40     
  1278.85        500.000        3291.81     
  1275.64        500.000        3292.22     
  1272.44        500.000        3292.63     
  1269.23        500.000        3293.04     
  1266.03        500.000        3293.46     
  1262.82        500.000        3293.87     
  1259.62        500.000        3294.28     
  1256.41        500.000        3294.28     
  1253.21        500.000        3294.69     
  1250.00        500.000        3295.10     
  1246.79        500.000        3295.51     
  1243.59        500.000        3295.92     
  1240.38        500.000        3296.33     
  1237.18        500.000        3296.74     
  1233.97        500.000        3297.15     
  1230.77        500.000        3297.18     
  1227.56        500.000        3297.59     
  1224.36        500.000        3298.00     
  1221.15        500.000        3298.40     
  1217.95        500.000        3298.81     
  1214.74        500.000        3299.22     
  1211.54        500.000        3299.63     
  1208.33        500.000        3300.03     
  1205.13        500.000        3300.09     
  1201.92        500.000        3300.50     
  1198.72        500.000        3300.90     
  1195.51        500.000        3301.31     
  1192.31        500.000        3301.71     
  1189.10        500.000        3302.12     
  1185.90        500.000        3302.52     
  1182.69        500.000        3302.93     
  1179.49        500.000        3303.02     
  1176.28        500.000        3303.42     
  1173.08        500.000        3303.82     
  1169.87        500.000        3304.23     
  1166.67        500.000        3304.63     
  1163.46        500.000        3305.03     
  1160.26        500.000        3305.43     
  1157.05        500.000        3305.84     
  1153.85        500.000        3305.95     
  1150.64        500.000        3306.36     
  1147.44        500.000        3306.76     
  1144.23        500.000        3307.16     
  1141.03        500.000        3307.56     
  1137.82        500.000        3307.96     
  1134.62        500.000        3308.36     
  1131.41        500.000        3308.76     
  1128.21        500.000        3308.90     
  1125.00        500.000        3309.30     
  1121.79        500.000        3309.70     
  1118.59        500.000        3310.10     
  1115.38        500.000        3310.50     
  1112.18        500.000        3310.90     
  1108.97        500.000        3311.30     
  1105.77        500.000        3311.69     
  1102.56        500.000        3311.87     
  1099.36        500.000        3312.27     
  1096.15        500.000        3312.66     
  1092.95        500.000        3313.06     
  1089.74        500.000        3313.46     
  1086.54        500.000        3313.85     
  1083.33        500.000        3314.25     
  1080.13        500.000        3314.64     
  1076.92        500.000        3314.85     
  1073.72        500.000        3315.25     
  1070.51        500.000        3315.60     
  1067.31        500.000        3315.97     
  1064.10        500.000        3316.35     
  1060.90        500.000        3316.72     
  1057.69        500.000        3317.09     
  1054.49        500.000        3317.49     
  1051.28        500.000        3317.84     
  1048.08        500.000        3318.23     
  1044.87        500.000        3318.62     
  1041.67        500.000        3319.02     
  1038.46        500.000        3319.41     
  1035.26        500.000        3319.80     
  1032.05        500.000        3320.19     
  1028.85        500.000        3320.59     
  1025.64        500.000        3320.82     
  1022.44        500.000        3321.21     
  1019.23        500.000        3321.60     
  1016.03        500.000        3322.00     
  1012.82        500.000        3322.39     
  1009.62        500.000        3322.78     
  1006.41        500.000        3323.17     
  1003.21        500.000        3323.56     
  1000.00        500.000        3323.82     
