|6.6.6
Archiving\03_Data\eqfracLP/QFM_m5/TAY13/TAY13_6.tab                       
           1
T(K)    
  0.000000000000000E+000
  0.000000000000000E+000
           0
           3
T(K)           P(bar)         rho,kg/m3     
  1570.51        500.000        3256.67     
  1569.08        500.000        3236.79     
  1567.65        500.000        3245.90     
  1566.22        500.000        3227.91     
  1564.79        500.000        3225.26     
  1563.36        500.000        3237.26     
  1561.93        500.000        3227.76     
  1560.50        500.000        3229.67     
  1559.07        500.000        3229.76     
  1557.64        500.000        3230.32     
  1556.21        500.000        3230.66     
  1554.78        500.000        3247.75     
  1553.35        500.000        3232.52     
  1551.92        500.000        3229.11     
  1550.49        500.000        3230.42     
  1549.06        500.000        3232.11     
  1547.63        500.000        3232.20     
  1546.20        500.000        3232.72     
  1544.77        500.000        3232.93     
  1543.34        500.000        3233.65     
  1541.91        500.000        3279.54     
  1540.48        500.000        3230.80     
  1539.05        500.000        3232.10     
  1537.62        500.000        3233.35     
  1536.19        500.000        3235.08     
  1534.76        500.000        3234.40     
  1533.33        500.000        3233.68     
  1531.90        500.000        3234.09     
  1530.47        500.000        3234.20     
  1529.04        500.000        3253.43     
  1527.61        500.000        3234.99     
  1526.18        500.000        3236.27     
  1524.75        500.000        3235.68     
  1523.32        500.000        3235.92     
  1521.90        500.000        3236.17     
  1520.47        500.000        3236.19     
  1519.04        500.000        3237.39     
  1517.61        500.000        3237.20     
  1516.18        500.000        3264.72     
  1514.75        500.000        3238.59     
  1513.32        500.000        3238.33     
  1511.89        500.000        3238.85     
  1510.46        500.000        3239.15     
  1509.03        500.000        3238.67     
  1507.60        500.000        3268.58     
  1506.17        500.000        3239.95     
  1504.74        500.000        3241.80     
  1503.31        500.000        3241.08     
  1501.88        500.000        3241.57     
  1500.45        500.000        3242.88     
  1499.02        500.000        3242.64     
  1497.59        500.000        3243.17     
  1496.16        500.000        3242.55     
  1494.73        500.000        3244.09     
  1493.30        500.000        3243.72     
  1491.87        500.000        3244.76     
  1490.44        500.000        3245.20     
  1489.01        500.000        3244.60     
  1487.58        500.000        3245.73     
  1486.15        500.000        3245.95     
  1484.72        500.000        3246.36     
  1483.29        500.000        3246.36     
  1481.86        500.000        3247.74     
  1480.43        500.000        3247.53     
  1479.00        500.000        3239.28     
  1477.57        500.000        3234.40     
  1476.14        500.000        3234.59     
  1474.71        500.000        3235.58     
  1473.28        500.000        3235.61     
  1471.85        500.000        3235.81     
  1470.42        500.000        3238.80     
  1468.99        500.000        3238.10     
  1467.56        500.000        3238.25     
  1466.13        500.000        3239.52     
  1464.70        500.000        3240.31     
  1463.27        500.000        3243.06     
  1461.84        500.000        3241.59     
  1460.41        500.000        3242.15     
  1458.98        500.000        3242.77     
  1457.55        500.000        3243.33     
  1456.12        500.000        3244.63     
  1454.69        500.000        3245.25     
  1453.26        500.000        3237.83     
  1451.83        500.000        3234.15     
  1450.40        500.000        3234.92     
  1448.97        500.000        3236.11     
  1447.54        500.000        3237.00     
  1446.11        500.000        3237.52     
  1444.68        500.000        3238.53     
  1443.25        500.000        3239.85     
  1441.82        500.000        3240.60     
  1440.39        500.000        3241.48     
  1438.96        500.000        3242.06     
  1437.53        500.000        3242.99     
  1436.10        500.000        3243.89     
  1434.67        500.000        3244.71     
  1433.24        500.000        3246.42     
  1431.81        500.000        3247.04     
  1430.38        500.000        3247.59     
  1428.95        500.000        3248.79     
  1427.53        500.000        3249.75     
  1426.10        500.000        3250.43     
  1424.67        500.000        3100.40     
  1423.24        500.000        3077.99     
  1421.81        500.000        3078.82     
  1420.38        500.000        3079.65     
  1418.95        500.000        3080.93     
  1417.52        500.000        3081.84     
  1416.09        500.000        3082.87     
  1414.66        500.000        3083.71     
  1413.23        500.000        3084.73     
  1411.80        500.000        3105.65     
  1410.37        500.000        3131.85     
  1408.94        500.000        3132.02     
  1407.51        500.000        3132.02     
  1406.08        500.000        3132.27     
  1404.65        500.000        3132.22     
  1403.22        500.000        3132.30     
  1401.79        500.000        3132.44     
  1400.36        500.000        3132.55     
  1398.93        500.000        3132.61     
  1397.50        500.000        3132.72     
  1396.07        500.000        3132.84     
  1394.64        500.000        3132.88     
  1393.21        500.000        3133.00     
  1391.78        500.000        3133.08     
  1390.35        500.000        3133.20     
  1388.92        500.000        3133.32     
  1387.49        500.000        3133.42     
  1386.06        500.000        3133.50     
  1384.63        500.000        3133.59     
  1383.20        500.000        3133.68     
  1381.77        500.000        3133.79     
  1380.34        500.000        3133.89     
  1378.91        500.000        3133.96     
  1377.48        500.000        3134.06     
  1376.05        500.000        3134.13     
  1374.62        500.000        3134.24     
  1373.19        500.000        3134.25     
  1371.76        500.000        3134.44     
  1370.33        500.000        3134.44     
  1368.90        500.000        3134.57     
  1367.47        500.000        3134.61     
  1366.04        500.000        3134.72     
  1364.61        500.000        3134.72     
  1363.18        500.000        3134.85     
  1361.75        500.000        3134.89     
  1360.32        500.000        3135.03     
  1358.89        500.000        3135.14     
  1357.46        500.000        3135.09     
  1356.03        500.000        3135.16     
  1354.60        500.000        3135.17     
  1353.17        500.000        3135.26     
  1351.74        500.000        3135.35     
  1350.31        500.000        3135.32     
  1348.88        500.000        3135.38     
  1347.45        500.000        3135.44     
  1346.02        500.000        3135.42     
  1344.59        500.000        3135.49     
  1343.16        500.000        3135.48     
  1341.73        500.000        3135.48     
  1340.30        500.000        3135.53     
  1338.87        500.000        3135.53     
  1337.44        500.000        3135.53     
  1336.01        500.000        3135.53     
  1334.58        500.000        3135.54     
  1333.15        500.000        3135.47     
  1331.73        500.000        3135.48     
  1330.30        500.000        3135.42     
  1328.87        500.000        3135.29     
  1327.44        500.000        3135.39     
  1326.01        500.000        3135.32     
  1324.58        500.000        3135.23     
  1323.15        500.000        3135.21     
  1321.72        500.000        3135.07     
  1320.29        500.000        3135.08     
  1318.86        500.000        3134.98     
  1317.43        500.000        3134.89     
  1316.00        500.000        3134.83     
  1314.57        500.000        3134.87     
  1313.14        500.000        3134.58     
  1311.71        500.000        3134.50     
  1310.28        500.000        3134.39     
  1308.85        500.000        3134.28     
  1307.42        500.000        3134.24     
  1305.99        500.000        3135.48     
  1304.56        500.000        3140.19     
  1303.13        500.000        3137.01     
  1301.70        500.000        3137.95     
  1300.27        500.000        3169.16     
  1298.84        500.000        3139.47     
  1297.41        500.000        3140.16     
  1295.98        500.000        3141.31     
  1294.55        500.000        2750.26     
  1293.12        500.000        2737.44     
  1291.69        500.000        2738.60     
  1290.26        500.000        2738.76     
  1288.83        500.000        2738.90     
  1287.40        500.000        2739.01     
  1285.97        500.000        2739.10     
  1284.54        500.000        2739.56     
  1283.11        500.000        2739.54     
  1281.68        500.000        2739.78     
  1280.25        500.000        2740.17     
  1278.82        500.000        2740.29     
  1277.39        500.000        2740.55     
  1275.96        500.000        2740.52     
  1274.53        500.000        2740.64     
  1273.10        500.000        2740.66     
  1271.67        500.000        2740.73     
  1270.24        500.000        2740.52     
  1268.81        500.000        2740.45     
  1267.38        500.000        2740.45     
  1265.95        500.000        2740.29     
  1264.52        500.000        2740.03     
  1263.09        500.000        2739.87     
  1261.66        500.000        2739.96     
  1260.23        500.000        2739.57     
  1258.80        500.000        2739.30     
  1257.37        500.000        2739.16     
  1255.94        500.000        2738.87     
  1254.51        500.000        2738.46     
  1253.08        500.000        2738.41     
  1251.65        500.000        2738.41     
  1250.22        500.000        2737.84     
  1248.79        500.000        2737.39     
  1247.36        500.000        2737.33     
  1245.93        500.000        2736.97     
  1244.50        500.000        2736.75     
  1243.07        500.000        2736.57     
  1241.64        500.000        2736.22     
  1240.21        500.000        2735.96     
  1238.78        500.000        2735.78     
  1237.36        500.000        2735.73     
  1235.93        500.000        2735.29     
  1234.50        500.000        2735.19     
  1233.07        500.000        2734.75     
  1231.64        500.000        2734.61     
  1230.21        500.000        2734.23     
  1228.78        500.000        2734.15     
  1227.35        500.000        2734.26     
  1225.92        500.000        2733.74     
  1224.49        500.000        2733.31     
  1223.06        500.000        2733.46     
  1221.63        500.000        2733.31     
  1220.20        500.000        2732.87     
  1218.77        500.000        2732.97     
  1217.34        500.000        2732.96     
  1215.91        500.000        2732.88     
  1214.48        500.000        2624.14     
  1213.05        500.000        2619.36     
  1211.62        500.000        2620.57     
  1210.19        500.000        2621.66     
  1208.76        500.000        2629.36     
  1207.33        500.000        2629.84     
  1205.90        500.000        2631.30     
  1204.47        500.000        2630.52     
  1203.04        500.000        2630.26     
  1201.61        500.000        2631.18     
  1200.18        500.000        2632.33     
  1198.75        500.000        2630.28     
  1197.32        500.000        2626.47     
  1195.89        500.000        2624.75     
  1194.46        500.000        2617.67     
  1193.03        500.000        2612.54     
  1191.60        500.000        2611.28     
  1190.17        500.000        2611.37     
  1188.74        500.000        2611.47     
  1187.31        500.000        2611.58     
  1185.88        500.000        2612.16     
  1184.45        500.000        2612.34     
  1183.02        500.000        2612.14     
  1181.59        500.000        2612.34     
  1180.16        500.000        2612.55     
  1178.73        500.000        2612.78     
  1177.30        500.000        2613.45     
  1175.87        500.000        2613.71     
  1174.44        500.000        2614.05     
  1173.01        500.000        2614.43     
  1171.58        500.000        2614.87     
  1170.15        500.000        2615.33     
  1168.72        500.000        2615.81     
  1167.29        500.000        2615.80     
  1165.86        500.000        2615.88     
  1164.43        500.000        2615.93     
  1163.00        500.000        2615.92     
  1161.57        500.000        2615.97     
  1160.14        500.000        2616.08     
  1158.71        500.000        2616.19     
  1157.28        500.000        2616.30     
  1155.85        500.000        2616.35     
  1154.42        500.000        2616.41     
  1152.99        500.000        2616.50     
  1151.56        500.000        2616.56     
  1150.13        500.000        2616.62     
  1148.70        500.000        2616.68     
  1147.27        500.000        2616.73     
  1145.84        500.000        2616.79     
  1144.41        500.000        2616.85     
  1142.98        500.000        2616.91     
  1141.56        500.000        2616.97     
  1140.13        500.000        2617.03     
  1138.70        500.000        2617.09     
  1137.27        500.000        2617.15     
  1135.84        500.000        2617.21     
  1134.41        500.000        2617.27     
  1132.98        500.000        2617.33     
  1131.55        500.000        2617.39     
  1130.12        500.000        2617.45     
  1128.69        500.000        2617.51     
  1127.26        500.000        2617.57     
  1125.83        500.000        2617.63     
  1124.40        500.000        2617.69     
  1122.97        500.000        2617.75     
  1121.54        500.000        2617.81     
  1120.11        500.000        2617.86     
  1118.68        500.000        2617.92     
  1117.25        500.000        2617.98     
  1115.82        500.000        2618.04     
  1114.39        500.000        2618.10     
  1112.96        500.000        2618.15     
  1111.53        500.000        2618.21     
  1110.10        500.000        2618.27     
  1108.67        500.000        2618.33     
  1107.24        500.000        2618.39     
  1105.81        500.000        2618.45     
  1104.38        500.000        2618.50     
  1102.95        500.000        2618.56     
  1101.52        500.000        2618.62     
  1100.09        500.000        2618.68     
  1098.66        500.000        2618.73     
  1097.23        500.000        2618.79     
  1095.80        500.000        2618.85     
  1094.37        500.000        2618.91     
  1092.94        500.000        2618.97     
  1091.51        500.000        2619.02     
  1090.08        500.000        2619.08     
  1088.65        500.000        2619.14     
  1087.22        500.000        2619.20     
  1085.79        500.000        2619.25     
  1084.36        500.000        2619.31     
  1082.93        500.000        2619.37     
  1081.50        500.000        2619.42     
  1080.07        500.000        2619.48     
  1078.64        500.000        2619.54     
  1077.21        500.000        2619.60     
  1075.78        500.000        2619.65     
  1074.35        500.000        2619.71     
  1072.92        500.000        2619.77     
  1071.49        500.000        2619.83     
  1070.06        500.000        2619.88     
  1068.63        500.000        2619.94     
  1067.20        500.000        2620.01     
  1065.77        500.000        2620.07     
  1064.34        500.000        2620.13     
  1062.91        500.000        2620.19     
  1061.48        500.000        2620.25     
  1060.05        500.000        2620.31     
  1058.62        500.000        2620.37     
  1057.19        500.000        2620.43     
  1055.76        500.000        2620.49     
  1054.33        500.000        2620.55     
  1052.90        500.000        2620.61     
  1051.47        500.000        2620.67     
  1050.04        500.000        2620.73     
  1048.61        500.000        2620.79     
  1047.19        500.000        2620.85     
  1045.76        500.000        2620.90     
  1044.33        500.000        2620.96     
  1042.90        500.000        2621.02     
  1041.47        500.000        2621.07     
  1040.04        500.000        2621.13     
  1038.61        500.000        2621.08     
  1037.18        500.000        2621.25     
  1035.75        500.000        2621.31     
  1034.32        500.000        2621.37     
  1032.89        500.000        2621.43     
  1031.46        500.000        2621.49     
  1030.03        500.000        2621.54     
  1028.60        500.000        2621.60     
  1027.17        500.000        2621.66     
  1025.74        500.000        2621.72     
  1024.31        500.000        2621.78     
  1022.88        500.000        2621.84     
  1021.45        500.000        2621.90     
  1020.02        500.000        2621.95     
  1018.59        500.000        2622.01     
  1017.16        500.000        2622.07     
  1015.73        500.000        2622.13     
  1014.30        500.000        2622.36     
  1012.87        500.000        2622.42     
  1011.44        500.000        2622.47     
  1010.01        500.000        2622.44     
  1008.58        500.000        2622.49     
  1007.15        500.000        2622.54     
  1005.72        500.000        2622.59     
  1004.29        500.000        2622.65     
  1002.86        500.000        2622.70     
  1001.43        500.000        2622.75     
  1000.00        500.000        2622.80     
