|6.6.6
Archiving\03_Data\eq/QFM_m3.5/GRV/GRV_3.tab                               
           1
T(K)    
  0.000000000000000E+000
  0.000000000000000E+000
           0
           9
T(K)           P(bar)         melt(TH)       pxmn           Sp(TH)         O(HP)          Opx(TH)        Cpx(TH)        Cpx(TH)       
  2000.00        2500.00        99.3194       0.680607                 NaN            NaN            NaN            NaN            NaN
  1996.79        2500.00        99.3193       0.680681                 NaN            NaN            NaN            NaN            NaN
  1993.59        2500.00        99.3192       0.680755                 NaN            NaN            NaN            NaN            NaN
  1990.38        2500.00        99.3192       0.680829                 NaN            NaN            NaN            NaN            NaN
  1987.18        2500.00        99.3191       0.680903                 NaN            NaN            NaN            NaN            NaN
  1983.97        2500.00        99.3190       0.680977                 NaN            NaN            NaN            NaN            NaN
  1980.77        2500.00        99.3189       0.681051                 NaN            NaN            NaN            NaN            NaN
  1977.56        2500.00        99.3189       0.681125                 NaN            NaN            NaN            NaN            NaN
  1974.36        2500.00        99.3188       0.681199                 NaN            NaN            NaN            NaN            NaN
  1971.15        2500.00        99.3187       0.681273                 NaN            NaN            NaN            NaN            NaN
  1967.95        2500.00        99.3187       0.681347                 NaN            NaN            NaN            NaN            NaN
  1964.74        2500.00        99.3186       0.681422                 NaN            NaN            NaN            NaN            NaN
  1961.54        2500.00        99.3185       0.681496                 NaN            NaN            NaN            NaN            NaN
  1958.33        2500.00        99.3184       0.681571                 NaN            NaN            NaN            NaN            NaN
  1955.13        2500.00        99.3184       0.681645                 NaN            NaN            NaN            NaN            NaN
  1951.92        2500.00        99.3183       0.681720                 NaN            NaN            NaN            NaN            NaN
  1948.72        2500.00        99.3182       0.681795                 NaN            NaN            NaN            NaN            NaN
  1945.51        2500.00        99.3181       0.681869                 NaN            NaN            NaN            NaN            NaN
  1942.31        2500.00        99.3181       0.681944                 NaN            NaN            NaN            NaN            NaN
  1939.10        2500.00        99.3180       0.682019                 NaN            NaN            NaN            NaN            NaN
  1935.90        2500.00        99.3179       0.682094                 NaN            NaN            NaN            NaN            NaN
  1932.69        2500.00        99.3178       0.682169                 NaN            NaN            NaN            NaN            NaN
  1929.49        2500.00        99.3178       0.682244                 NaN            NaN            NaN            NaN            NaN
  1926.28        2500.00        99.3177       0.682319                 NaN            NaN            NaN            NaN            NaN
  1923.08        2500.00        99.3176       0.682394                 NaN            NaN            NaN            NaN            NaN
  1919.87        2500.00        99.3175       0.682469                 NaN            NaN            NaN            NaN            NaN
  1916.67        2500.00        99.3175       0.682544                 NaN            NaN            NaN            NaN            NaN
  1913.46        2500.00        99.3174       0.682620                 NaN            NaN            NaN            NaN            NaN
  1910.26        2500.00        99.3173       0.682695                 NaN            NaN            NaN            NaN            NaN
  1907.05        2500.00        99.3172       0.682771                 NaN            NaN            NaN            NaN            NaN
  1903.85        2500.00        99.3172       0.682846                 NaN            NaN            NaN            NaN            NaN
  1900.64        2500.00        99.3171       0.682922                 NaN            NaN            NaN            NaN            NaN
  1897.44        2500.00        99.3170       0.682997                 NaN            NaN            NaN            NaN            NaN
  1894.23        2500.00        99.3169       0.683073                 NaN            NaN            NaN            NaN            NaN
  1891.03        2500.00        99.3169       0.683149                 NaN            NaN            NaN            NaN            NaN
  1887.82        2500.00        99.3168       0.683224                 NaN            NaN            NaN            NaN            NaN
  1884.62        2500.00        99.3167       0.683300                 NaN            NaN            NaN            NaN            NaN
  1881.41        2500.00        99.3166       0.683376                 NaN            NaN            NaN            NaN            NaN
  1878.21        2500.00        99.3165       0.683452                 NaN            NaN            NaN            NaN            NaN
  1875.00        2500.00        99.3165       0.683528                 NaN            NaN            NaN            NaN            NaN
  1871.79        2500.00        99.3164       0.683604                 NaN            NaN            NaN            NaN            NaN
  1868.59        2500.00        99.3163       0.683680                 NaN            NaN            NaN            NaN            NaN
  1865.38        2500.00        99.3162       0.683757                 NaN            NaN            NaN            NaN            NaN
  1862.18        2500.00        99.3162       0.683833                 NaN            NaN            NaN            NaN            NaN
  1858.97        2500.00        99.3161       0.683909                 NaN            NaN            NaN            NaN            NaN
  1855.77        2500.00        99.3160       0.683986                 NaN            NaN            NaN            NaN            NaN
  1852.56        2500.00        99.3159       0.684062                 NaN            NaN            NaN            NaN            NaN
  1849.36        2500.00        99.3159       0.684138                 NaN            NaN            NaN            NaN            NaN
  1846.15        2500.00        99.3158       0.684215                 NaN            NaN            NaN            NaN            NaN
  1842.95        2500.00        99.3157       0.684292                 NaN            NaN            NaN            NaN            NaN
  1839.74        2500.00        99.3156       0.684368                 NaN            NaN            NaN            NaN            NaN
  1836.54        2500.00        99.3156       0.684445                 NaN            NaN            NaN            NaN            NaN
  1833.33        2500.00        99.3155       0.684522                 NaN            NaN            NaN            NaN            NaN
  1830.13        2500.00        99.3154       0.684599                 NaN            NaN            NaN            NaN            NaN
  1826.92        2500.00        99.3153       0.684675                 NaN            NaN            NaN            NaN            NaN
  1823.72        2500.00        99.3152       0.684752                 NaN            NaN            NaN            NaN            NaN
  1820.51        2500.00        99.3152       0.684829                 NaN            NaN            NaN            NaN            NaN
  1817.31        2500.00        99.3151       0.684903                 NaN            NaN            NaN            NaN            NaN
  1814.10        2500.00        99.2971       0.685008       0.178944E-001            NaN            NaN            NaN            NaN
  1810.90        2500.00        99.2838       0.685104       0.311026E-001            NaN            NaN            NaN            NaN
  1807.69        2500.00        99.2705       0.685200       0.443147E-001            NaN            NaN            NaN            NaN
  1804.49        2500.00        99.2575       0.685295       0.571698E-001            NaN            NaN            NaN            NaN
  1801.28        2500.00        99.2446       0.685390       0.700286E-001            NaN            NaN            NaN            NaN
  1798.08        2500.00        99.2316       0.685485       0.828911E-001            NaN            NaN            NaN            NaN
  1794.87        2500.00        99.2187       0.685580       0.957574E-001            NaN            NaN            NaN            NaN
  1791.67        2500.00        99.2062       0.685675       0.108159                 NaN            NaN            NaN            NaN
  1788.46        2500.00        99.1937       0.685769       0.120563                 NaN            NaN            NaN            NaN
  1785.26        2500.00        99.1812       0.685864       0.132972                 NaN            NaN            NaN            NaN
  1782.05        2500.00        99.1687       0.685958       0.145383                 NaN            NaN            NaN            NaN
  1778.85        2500.00        99.1565       0.686053       0.157452                 NaN            NaN            NaN            NaN
  1775.64        2500.00        99.1443       0.686147       0.169523                 NaN            NaN            NaN            NaN
  1772.44        2500.00        98.8435       0.686342       0.181504       0.288631                 NaN            NaN            NaN
  1769.23        2500.00        98.0739       0.686701       0.193565        1.04580                 NaN            NaN            NaN
  1766.03        2500.00        97.2979       0.687060       0.205116        1.80995                 NaN            NaN            NaN
  1762.82        2500.00        96.5210       0.687417       0.216678        2.57488                 NaN            NaN            NaN
  1759.62        2500.00        95.7434       0.687772       0.228252        3.34056                 NaN            NaN            NaN
  1756.41        2500.00        94.9650       0.688126       0.239837        4.10699                 NaN            NaN            NaN
  1753.21        2500.00        94.1859       0.688477       0.251433        4.87417                 NaN            NaN            NaN
  1750.00        2500.00        93.4060       0.688826       0.263041        5.64209                 NaN            NaN            NaN
  1746.79        2500.00        92.6254       0.689173       0.274659        6.41074                 NaN            NaN            NaN
  1743.59        2500.00        91.8441       0.689518       0.286288        7.18012                 NaN            NaN            NaN
  1740.38        2500.00        91.0628       0.689861       0.296989        7.95033                 NaN            NaN            NaN
  1737.18        2500.00        90.2808       0.690201       0.307699        8.72126                 NaN            NaN            NaN
  1733.97        2500.00        89.4982       0.690539       0.318419        9.49288                 NaN            NaN            NaN
  1730.77        2500.00        88.7148       0.690875       0.329148        10.2652                 NaN            NaN            NaN
  1727.56        2500.00        87.9307       0.691209       0.339887        11.0382                 NaN            NaN            NaN
  1724.36        2500.00        87.1459       0.691540       0.350634        11.8119                 NaN            NaN            NaN
  1721.15        2500.00        86.3605       0.691869       0.361391        12.5863                 NaN            NaN            NaN
  1717.95        2500.00        85.5744       0.692196       0.372157        13.3613                 NaN            NaN            NaN
  1714.74        2500.00        84.8095       0.692511       0.382057        14.1159                 NaN            NaN            NaN
  1711.54        2500.00        84.0440       0.692825       0.391964        14.8712                 NaN            NaN            NaN
  1708.33        2500.00        83.2779       0.693136       0.401879        15.6271                 NaN            NaN            NaN
  1705.13        2500.00        82.5112       0.693444       0.411802        16.3835                 NaN            NaN            NaN
  1701.92        2500.00        81.7439       0.693751       0.421732        17.1406                 NaN            NaN            NaN
  1698.72        2500.00        80.9761       0.694054       0.431669        17.8982                 NaN            NaN            NaN
  1695.51        2500.00        80.2077       0.694355       0.441613        18.6564                 NaN            NaN            NaN
  1692.31        2500.00        79.4387       0.694654       0.451564        19.4151                 NaN            NaN            NaN
  1689.10        2500.00        78.7001       0.694939       0.460872        20.1441                 NaN            NaN            NaN
  1685.90        2500.00        77.9611       0.695222       0.470185        20.8735                 NaN            NaN            NaN
  1682.69        2500.00        77.2215       0.695502       0.479505        21.6035                 NaN            NaN            NaN
  1679.49        2500.00        76.4815       0.695780       0.488830        22.3339                 NaN            NaN            NaN
  1676.28        2500.00        75.7640       0.696045       0.497851        23.0421                 NaN            NaN            NaN
  1673.08        2500.00        75.0460       0.696308       0.506876        23.7508                 NaN            NaN            NaN
  1669.87        2500.00        73.2839       0.697581       0.514566        24.1621        1.34190                 NaN            NaN
  1666.67        2500.00        71.2298       0.699135       0.521582        24.4141        3.13538                 NaN            NaN
  1663.46        2500.00        69.5000       0.700481       0.525475        24.6147        4.65935                 NaN            NaN
  1660.26        2500.00        67.7636       0.701830       0.529382        24.8160        6.18913                 NaN            NaN
  1657.05        2500.00        66.0208       0.703183       0.533302        25.0180        7.72474                 NaN            NaN
  1653.85        2500.00        64.2713       0.704539       0.537237        25.2207        9.26620                 NaN            NaN
  1650.64        2500.00        62.5152       0.705898       0.541185        25.4241        10.8135                 NaN            NaN
  1647.44        2500.00        60.7526       0.707260       0.545146        25.6282        12.3668                 NaN            NaN
  1644.23        2500.00        58.9832       0.708626       0.549122        25.8331        13.9259                 NaN            NaN
  1641.03        2500.00        57.2073       0.709995       0.553111        26.0386        15.4910                 NaN            NaN
  1637.82        2500.00        55.8794       0.711055       0.553259        26.1673        16.6890                 NaN            NaN
  1634.62        2500.00        54.5478       0.712117       0.553407        26.2963        17.8904                 NaN            NaN
  1631.41        2500.00        53.2123       0.713181       0.553553        26.4256        19.0953                 NaN            NaN
  1628.21        2500.00        51.8730       0.714246       0.553699        26.5553        20.3038                 NaN            NaN
  1625.00        2500.00        50.5298       0.715313       0.553845        26.6853        21.5158                 NaN            NaN
  1621.79        2500.00        49.1827       0.716382       0.553990        26.8156        22.7314                 NaN            NaN
  1618.59        2500.00        47.8317       0.717453       0.554134        26.9462        23.9504                 NaN            NaN
  1615.38        2500.00        46.4769       0.718526       0.554277        27.0772        25.1731                 NaN            NaN
  1612.18        2500.00        45.3705       0.719431       0.550237        27.1678        26.1920                 NaN            NaN
  1608.97        2500.00        44.2615       0.720338       0.546186        27.2586        27.2133                 NaN            NaN
  1605.77        2500.00        43.1499       0.721246       0.542124        27.3496        28.2371                 NaN            NaN
  1602.56        2500.00        42.0355       0.722155       0.538052        27.4408        29.2634                 NaN            NaN
  1599.36        2500.00        40.9185       0.723065       0.533967        27.5322        30.2922                 NaN            NaN
  1596.15        2500.00        39.7988       0.723977       0.529872        27.6237        31.3236                 NaN            NaN
  1592.95        2500.00        38.6764       0.724889       0.525766        27.7155        32.3574                 NaN            NaN
  1589.74        2500.00        37.5514       0.725803       0.521649        27.8074        33.3938                 NaN            NaN
  1586.54        2500.00        36.5139       0.726664       0.513306        27.8881        34.3580                 NaN            NaN
  1583.33        2500.00        35.4742       0.727527       0.504943        27.9690        35.3244                 NaN            NaN
  1580.13        2500.00        34.4321       0.728390       0.496559        28.0500        36.2930                 NaN            NaN
  1576.92        2500.00        33.3877       0.729255       0.488155        28.1311        37.2638                 NaN            NaN
  1573.72        2500.00        32.3847       0.730085       0.479184        28.2108        38.1952                 NaN            NaN
  1570.51        2500.00        31.2807       0.731000       0.473251        28.2897        38.5811       0.644279                 NaN
  1567.31        2500.00        29.9893       0.732075       0.477038        28.3699        37.9015        2.53011                 NaN
  1564.10        2500.00        28.6943       0.733152       0.480835        28.4504        37.2199        4.42144                 NaN
  1560.90        2500.00        27.3774       0.734276       0.481750        28.5462        36.7241        6.13630                 NaN
  1557.69        2500.00        26.0567       0.735402       0.482668        28.6422        36.2267        7.85638                 NaN
  1554.49        2500.00        24.7321       0.736531       0.483589        28.7384        35.7276        9.58168                 NaN
  1551.28        2500.00        23.4037       0.737661       0.484513        28.8349        35.2270        11.3122                 NaN
  1548.08        2500.00        22.1057       0.738793       0.481059        28.9410        35.0080        12.7254                 NaN
  1544.87        2500.00        20.8261       0.739920       0.473676        29.0534        35.0281        13.7574       0.121321     
  1541.67        2500.00        20.8250       0.739940       0.473694        29.0538        35.0286        13.7576       0.121322     
  1538.46        2500.00        18.2293       0.742266       0.428043        29.3359        36.8749        11.2971        3.09249     
