|6.6.6
Archiving\03_Data\eqfrac/QFM/LAR/LAR_6.tab                                
           1
T(K)    
  0.000000000000000E+000
  0.000000000000000E+000
           0
           3
T(K)           P(bar)         rho,kg/m3     
  1413.46        2500.00        3342.42     
  1412.42        2500.00        3343.19     
  1411.39        2500.00        3355.59     
  1410.35        2500.00        3337.27     
  1409.32        2500.00        3343.32     
  1408.28        2500.00        3346.58     
  1407.24        2500.00        3347.49     
  1406.21        2500.00        3615.71     
  1405.17        2500.00        3349.35     
  1404.13        2500.00        3350.13     
  1403.10        2500.00        3351.38     
  1402.06        2500.00        3351.79     
  1401.03        2500.00        3352.39     
  1399.99        2500.00        3353.75     
  1398.95        2500.00        3354.54     
  1397.92        2500.00        3355.38     
  1396.88        2500.00        3356.86     
  1395.84        2500.00        3357.15     
  1394.81        2500.00        3367.18     
  1393.77        2500.00        3353.68     
  1392.74        2500.00        3356.00     
  1391.70        2500.00        3361.96     
  1390.66        2500.00        3361.62     
  1389.63        2500.00        3362.62     
  1388.59        2500.00        3228.35     
  1387.55        2500.00        3193.33     
  1386.52        2500.00        3196.04     
  1385.48        2500.00        3196.54     
  1384.45        2500.00        3198.06     
  1383.41        2500.00        3199.49     
  1382.37        2500.00        3200.59     
  1381.34        2500.00        3202.73     
  1380.30        2500.00        3205.79     
  1379.26        2500.00        3205.91     
  1378.23        2500.00        3317.70     
  1377.19        2500.00        3207.86     
  1376.16        2500.00        3210.59     
  1375.12        2500.00        3212.52     
  1374.08        2500.00        3214.07     
  1373.05        2500.00        3215.40     
  1372.01        2500.00        3216.33     
  1370.97        2500.00        3217.14     
  1369.94        2500.00        3220.06     
  1368.90        2500.00        3221.76     
  1367.87        2500.00        3223.49     
  1366.83        2500.00        3224.82     
  1365.79        2500.00        3226.36     
  1364.76        2500.00        3228.17     
  1363.72        2500.00        3238.63     
  1362.68        2500.00        3241.79     
  1361.65        2500.00        3246.12     
  1360.61        2500.00        3256.76     
  1359.58        2500.00        3265.08     
  1358.54        2500.00        3257.93     
  1357.50        2500.00        3278.65     
  1356.47        2500.00        3292.00     
  1355.43        2500.00        3308.06     
  1354.39        2500.00        3324.85     
  1353.36        2500.00        3338.03     
  1352.32        2500.00        3348.95     
  1351.29        2500.00        3357.38     
  1350.25        2500.00        3363.39     
  1349.21        2500.00        3366.48     
  1348.18        2500.00        3371.29     
  1347.14        2500.00        3372.55     
  1346.10        2500.00        3374.04     
  1345.07        2500.00        3375.02     
  1344.03        2500.00        3375.73     
  1343.00        2500.00        3376.73     
  1341.96        2500.00        3376.80     
  1340.92        2500.00        3377.24     
  1339.89        2500.00        3377.40     
  1338.85        2500.00        3377.53     
  1337.81        2500.00        3378.06     
  1336.78        2500.00        3377.86     
  1335.74        2500.00        3377.98     
  1334.71        2500.00        3378.01     
  1333.67        2500.00        3378.00     
  1332.63        2500.00        3377.91     
  1331.60        2500.00        3377.90     
  1330.56        2500.00        3377.81     
  1329.52        2500.00        3377.71     
  1328.49        2500.00        3377.56     
  1327.45        2500.00        3377.40     
  1326.42        2500.00        3377.25     
  1325.38        2500.00        3377.14     
  1324.34        2500.00        3376.83     
  1323.31        2500.00        3376.46     
  1322.27        2500.00        3376.74     
  1321.23        2500.00        3376.13     
  1320.20        2500.00        3375.78     
  1319.16        2500.00        3375.78     
  1318.13        2500.00        3375.27     
  1317.09        2500.00        3375.12     
  1316.05        2500.00        3374.77     
  1315.02        2500.00        3374.51     
  1313.98        2500.00        3374.12     
  1312.94        2500.00        3373.78     
  1311.91        2500.00        3373.09     
  1310.87        2500.00        3373.62     
  1309.84        2500.00        3372.58     
  1308.80        2500.00        3372.24     
  1307.76        2500.00        3371.83     
  1306.73        2500.00        3371.40     
  1305.69        2500.00        3371.03     
  1304.65        2500.00        3370.46     
  1303.62        2500.00        3370.13     
  1302.58        2500.00        3369.72     
  1301.55        2500.00        3369.17     
  1300.51        2500.00        3368.26     
  1299.47        2500.00        3368.46     
  1298.44        2500.00        3364.09     
  1297.40        2500.00        2656.28     
  1296.36        2500.00        3387.31     
  1295.33        2500.00        2867.70     
  1294.29        2500.00        2856.53     
  1293.26        2500.00        2855.77     
  1292.22        2500.00        2855.02     
  1291.18        2500.00        2854.30     
  1290.15        2500.00        2853.61     
  1289.11        2500.00        2852.97     
  1288.07        2500.00        2852.30     
  1287.04        2500.00        2851.67     
  1286.00        2500.00        2851.11     
  1284.97        2500.00        2847.29     
  1283.93        2500.00        2851.97     
  1282.89        2500.00        2853.33     
  1281.86        2500.00        2848.87     
  1280.82        2500.00        2847.96     
  1279.78        2500.00        2848.21     
  1278.75        2500.00        2832.67     
  1277.71        2500.00        2853.27     
  1276.68        2500.00        2856.28     
  1275.64        2500.00        2523.47     
  1274.60        2500.00        2887.13     
  1273.57        2500.00        2842.13     
  1272.53        2500.00        2840.64     
  1271.50        2500.00        2599.53     
  1270.46        2500.00        2599.66     
  1269.42        2500.00        2843.40     
  1268.39        2500.00        2838.56     
  1267.35        2500.00        2828.52     
  1266.31        2500.00        3044.88     
  1265.28        2500.00        2823.17     
  1264.24        2500.00        2829.90     
  1263.21        2500.00        2828.91     
  1262.17        2500.00        2812.84     
  1261.13        2500.00        2826.95     
  1260.10        2500.00        2827.86     
  1259.06        2500.00        2818.22     
  1258.02        2500.00        2865.81     
  1256.99        2500.00        2824.14     
  1255.95        2500.00        2822.06     
  1254.92        2500.00        2824.30     
  1253.88        2500.00        2820.70     
  1252.84        2500.00        2817.84     
  1251.81        2500.00        2818.21     
  1250.77        2500.00        2544.83     
  1249.73        2500.00        2544.94     
  1248.70        2500.00        2820.02     
  1247.66        2500.00        2822.89     
  1246.63        2500.00        2820.85     
  1245.59        2500.00        2820.45     
  1244.55        2500.00        2828.98     
  1243.52        2500.00        2803.67     
  1242.48        2500.00        2818.23     
  1241.44        2500.00        2830.77     
  1240.41        2500.00        2987.30     
  1239.37        2500.00        2820.84     
  1238.34        2500.00        2693.72     
  1237.30        2500.00        2805.51     
  1236.26        2500.00        2818.39     
  1235.23        2500.00        2825.83     
  1234.19        2500.00        3212.36     
  1233.15        2500.00        2659.25     
  1232.12        2500.00        2783.25     
  1231.08        2500.00        3234.48     
  1230.05        2500.00        2657.32     
  1229.01        2500.00        2805.25     
  1227.97        2500.00        2819.72     
  1226.94        2500.00        2804.59     
  1225.90        2500.00        2813.22     
  1224.86        2500.00        2669.94     
  1223.83        2500.00        2670.00     
  1222.79        2500.00        2670.02     
  1221.76        2500.00        2670.12     
  1220.72        2500.00        2670.16     
  1219.68        2500.00        2670.23     
  1218.65        2500.00        2670.24     
  1217.61        2500.00        2670.30     
  1216.57        2500.00        2670.43     
  1215.54        2500.00        2670.46     
  1214.50        2500.00        2670.48     
  1213.47        2500.00        2670.50     
  1212.43        2500.00        2670.59     
  1211.39        2500.00        2670.53     
  1210.36        2500.00        2670.67     
  1209.32        2500.00        2670.71     
  1208.28        2500.00        2670.67     
  1207.25        2500.00        2670.74     
  1206.21        2500.00        2670.81     
  1205.18        2500.00        2670.93     
  1204.14        2500.00        2670.97     
  1203.10        2500.00        2671.07     
  1202.07        2500.00        2671.13     
  1201.03        2500.00        2671.19     
  1199.99        2500.00        2671.26     
  1198.96        2500.00        2671.36     
  1197.92        2500.00        2670.74     
  1196.89        2500.00        2671.48     
  1195.85        2500.00        2671.49     
  1194.81        2500.00        2671.63     
  1193.78        2500.00        2671.57     
  1192.74        2500.00        2671.60     
  1191.70        2500.00        2671.73     
  1190.67        2500.00        2671.86     
  1189.63        2500.00        2671.94     
  1188.60        2500.00        2672.00     
  1187.56        2500.00        2672.07     
  1186.52        2500.00        2672.47     
  1185.49        2500.00        2672.56     
  1184.45        2500.00        2672.65     
  1183.41        2500.00        2672.71     
  1182.38        2500.00        2672.80     
  1181.34        2500.00        2672.89     
  1180.31        2500.00        2672.98     
  1179.27        2500.00        2673.08     
  1178.23        2500.00        2673.17     
  1177.20        2500.00        2673.26     
  1176.16        2500.00        2673.35     
  1175.12        2500.00        2673.42     
  1174.09        2500.00        2673.47     
  1173.05        2500.00        2673.54     
  1172.02        2500.00        2673.67     
  1170.98        2500.00        2673.76     
  1169.94        2500.00        2673.85     
  1168.91        2500.00        2673.94     
  1167.87        2500.00        2674.01     
  1166.83        2500.00        2674.10     
  1165.80        2500.00        2674.18     
  1164.76        2500.00        2674.28     
  1163.73        2500.00        2674.35     
  1162.69        2500.00        2674.44     
  1161.65        2500.00        2674.53     
  1160.62        2500.00        2674.61     
  1159.58        2500.00        2674.69     
  1158.54        2500.00        2674.78     
  1157.51        2500.00        2674.86     
  1156.47        2500.00        2674.94     
  1155.44        2500.00        2675.03     
  1154.40        2500.00        2675.11     
  1153.36        2500.00        2675.19     
  1152.33        2500.00        2675.28     
  1151.29        2500.00        2675.36     
  1150.25        2500.00        2675.45     
  1149.22        2500.00        2675.53     
  1148.18        2500.00        2675.61     
  1147.15        2500.00        2675.84     
  1146.11        2500.00        2675.90     
  1145.07        2500.00        2675.95     
  1144.04        2500.00        2676.00     
  1143.00        2500.00        2676.05     
  1141.96        2500.00        2676.10     
  1140.93        2500.00        2676.15     
  1139.89        2500.00        2676.23     
  1138.86        2500.00        2676.29     
  1137.82        2500.00        2676.37     
  1136.78        2500.00        2676.53     
  1135.75        2500.00        2676.61     
  1134.71        2500.00        2676.66     
  1133.68        2500.00        2676.72     
  1132.64        2500.00        2676.77     
  1131.60        2500.00        2676.85     
  1130.57        2500.00        2676.90     
  1129.53        2500.00        2677.16     
  1128.49        2500.00        2677.21     
  1127.46        2500.00        2677.26     
  1126.42        2500.00        2677.35     
  1125.39        2500.00        2677.40     
  1124.35        2500.00        2677.45     
  1123.31        2500.00        2677.50     
  1122.28        2500.00        2677.58     
  1121.24        2500.00        2677.74     
  1120.20        2500.00        2677.79     
  1119.17        2500.00        2677.93     
  1118.13        2500.00        2678.01     
  1117.10        2500.00        2678.06     
  1116.06        2500.00        2678.12     
  1115.02        2500.00        2678.17     
  1113.99        2500.00        2678.38     
  1112.95        2500.00        2678.43     
  1111.91        2500.00        2678.48     
  1110.88        2500.00        2678.53     
  1109.84        2500.00        2678.61     
  1108.81        2500.00        2678.66     
  1107.77        2500.00        2678.83     
  1106.73        2500.00        2678.88     
  1105.70        2500.00        2679.08     
  1104.66        2500.00        2679.13     
  1103.62        2500.00        2679.18     
  1102.59        2500.00        2679.23     
  1101.55        2500.00        2679.31     
  1100.52        2500.00        2679.36     
  1099.48        2500.00        2679.41     
  1098.44        2500.00        2679.46     
  1097.41        2500.00        2679.77     
  1096.37        2500.00        2679.82     
  1095.33        2500.00        2679.87     
  1094.30        2500.00        2679.92     
  1093.26        2500.00        2680.00     
  1092.23        2500.00        2680.05     
  1091.19        2500.00        2680.10     
  1090.15        2500.00        2680.15     
  1089.12        2500.00        2680.42     
  1088.08        2500.00        2680.51     
  1087.04        2500.00        2680.59     
  1086.01        2500.00        2680.68     
  1084.97        2500.00        2680.76     
  1083.94        2500.00        2680.85     
  1082.90        2500.00        2680.93     
  1081.86        2500.00        2681.02     
  1080.83        2500.00        2681.11     
  1079.79        2500.00        2681.18     
  1078.75        2500.00        2681.27     
  1077.72        2500.00        2681.36     
  1076.68        2500.00        2681.39     
  1075.65        2500.00        2681.53     
  1074.61        2500.00        2681.62     
  1073.57        2500.00        2681.71     
  1072.54        2500.00        2681.79     
  1071.50        2500.00        2681.88     
  1070.46        2500.00        2681.97     
  1069.43        2500.00        2682.05     
  1068.39        2500.00        2682.06     
  1067.36        2500.00        2682.14     
  1066.32        2500.00        2682.31     
  1065.28        2500.00        2682.40     
  1064.25        2500.00        2682.49     
  1063.21        2500.00        2682.57     
  1062.17        2500.00        2682.66     
  1061.14        2500.00        2682.40     
  1060.10        2500.00        2682.83     
  1059.07        2500.00        2682.95     
  1058.03        2500.00        2683.02     
  1056.99        2500.00        2683.10     
  1055.96        2500.00        2683.19     
  1054.92        2500.00        2683.28     
  1053.88        2500.00        2683.37     
  1052.85        2500.00        2683.46     
  1051.81        2500.00        2683.55     
  1050.78        2500.00        2683.63     
  1049.74        2500.00        2683.72     
  1048.70        2500.00        2683.58     
  1047.67        2500.00        2683.90     
  1046.63        2500.00        2683.98     
  1045.59        2500.00        2684.07     
  1044.56        2500.00        2684.17     
  1043.52        2500.00        2684.25     
  1042.49        2500.00        2684.34     
  1041.45        2500.00        2684.44     
  1040.41        2500.00        2684.53     
  1039.38        2500.00        2684.62     
  1038.34        2500.00        2684.71     
  1037.30        2500.00        2684.80     
  1036.27        2500.00        2684.89     
  1035.23        2500.00        2684.98     
  1034.20        2500.00        2685.08     
  1033.16        2500.00        2685.17     
  1032.12        2500.00        2685.26     
  1031.09        2500.00        2685.34     
  1030.05        2500.00        2685.44     
  1029.01        2500.00        2685.53     
  1027.98        2500.00        2685.62     
  1026.94        2500.00        2685.72     
  1025.91        2500.00        2685.81     
  1024.87        2500.00        2685.90     
  1023.83        2500.00        2685.99     
  1022.80        2500.00        2686.09     
  1021.76        2500.00        2686.18     
  1020.72        2500.00        2686.28     
  1019.69        2500.00        2686.37     
  1018.65        2500.00        2686.47     
  1017.62        2500.00        2686.57     
  1016.58        2500.00        2686.66     
  1015.54        2500.00        2686.76     
  1014.51        2500.00        2686.85     
  1013.47        2500.00        2686.94     
  1012.43        2500.00        2687.04     
  1011.40        2500.00        2687.13     
  1010.36        2500.00        2687.22     
  1009.33        2500.00        2687.31     
  1008.29        2500.00        2687.40     
  1007.25        2500.00        2687.49     
  1006.22        2500.00        2687.58     
  1005.18        2500.00        2687.67     
  1004.14        2500.00        2687.77     
  1003.11        2500.00        2687.91     
  1002.07        2500.00        2688.01     
  1001.04        2500.00        2688.11     
  1000.00        2500.00        2688.21     
