|6.6.6
Archiving\03_Data\eqfracLP/QFM_m4.25/TIS/TIS_6.tab                        
           1
T(K)    
  0.000000000000000E+000
  0.000000000000000E+000
           0
           3
T(K)           P(bar)         rho,kg/m3     
  1426.28        500.000        3308.81     
  1425.21        500.000        3310.82     
  1424.14        500.000        3311.86     
  1423.07        500.000        3312.94     
  1422.01        500.000        3314.17     
  1420.94        500.000        3359.85     
  1419.87        500.000        3315.67     
  1418.80        500.000        3187.29     
  1417.73        500.000        3129.21     
  1416.66        500.000        3130.46     
  1415.60        500.000        3131.74     
  1414.53        500.000        3132.75     
  1413.46        500.000        3134.55     
  1412.39        500.000        3135.23     
  1411.32        500.000        3140.51     
  1410.25        500.000        3145.57     
  1409.19        500.000        3146.62     
  1408.12        500.000        3148.20     
  1407.05        500.000        3149.50     
  1405.98        500.000        3150.82     
  1404.91        500.000        3152.74     
  1403.84        500.000        3153.83     
  1402.78        500.000        3155.41     
  1401.71        500.000        3156.91     
  1400.64        500.000        3158.48     
  1399.57        500.000        3159.89     
  1398.50        500.000        3161.21     
  1397.43        500.000        3162.94     
  1396.37        500.000        3164.65     
  1395.30        500.000        3166.03     
  1394.23        500.000        3167.59     
  1393.16        500.000        3169.14     
  1392.09        500.000        3170.76     
  1391.02        500.000        3172.28     
  1389.96        500.000        3173.73     
  1388.89        500.000        3175.25     
  1387.82        500.000        3176.76     
  1386.75        500.000        3179.18     
  1385.68        500.000        3179.08     
  1384.61        500.000        3181.50     
  1383.55        500.000        3183.47     
  1382.48        500.000        3185.06     
  1381.41        500.000        3186.40     
  1380.34        500.000        3187.79     
  1379.27        500.000        3189.46     
  1378.20        500.000        3190.93     
  1377.13        500.000        3192.57     
  1376.07        500.000        3194.19     
  1375.00        500.000        3195.63     
  1373.93        500.000        3197.39     
  1372.86        500.000        3198.79     
  1371.79        500.000        3200.60     
  1370.72        500.000        3202.19     
  1369.66        500.000        3203.59     
  1368.59        500.000        3205.22     
  1367.52        500.000        3206.91     
  1366.45        500.000        3208.60     
  1365.38        500.000        3210.05     
  1364.31        500.000        3211.68     
  1363.25        500.000        3211.73     
  1362.18        500.000        3216.15     
  1361.11        500.000        3216.24     
  1360.04        500.000        3217.86     
  1358.97        500.000        3224.81     
  1357.90        500.000        3383.85     
  1356.84        500.000        3225.09     
  1355.77        500.000        3223.76     
  1354.70        500.000        3225.44     
  1353.63        500.000        3226.90     
  1352.56        500.000        3228.44     
  1351.49        500.000        3229.64     
  1350.43        500.000        3231.39     
  1349.36        500.000        3232.68     
  1348.29        500.000        3234.47     
  1347.22        500.000        3235.84     
  1346.15        500.000        3237.17     
  1345.08        500.000        3238.39     
  1344.02        500.000        3240.27     
  1342.95        500.000        3241.62     
  1341.88        500.000        3242.98     
  1340.81        500.000        3244.30     
  1339.74        500.000        3245.94     
  1338.67        500.000        3246.90     
  1337.61        500.000        3248.34     
  1336.54        500.000        3249.75     
  1335.47        500.000        3250.92     
  1334.40        500.000        3252.22     
  1333.33        500.000        3253.57     
  1332.26        500.000        3254.83     
  1331.19        500.000        3252.47     
  1330.13        500.000        3256.41     
  1329.06        500.000        3238.48     
  1327.99        500.000        3261.62     
  1326.92        500.000        3262.16     
  1325.85        500.000        3262.23     
  1324.78        500.000        3263.00     
  1323.72        500.000        3266.91     
  1322.65        500.000        3265.41     
  1321.58        500.000        3266.71     
  1320.51        500.000        3266.98     
  1319.44        500.000        3267.90     
  1318.37        500.000        3269.85     
  1317.31        500.000        3270.40     
  1316.24        500.000        3271.10     
  1315.17        500.000        3271.56     
  1314.10        500.000        3275.76     
  1313.03        500.000        3270.82     
  1311.96        500.000        3272.52     
  1310.90        500.000        3265.80     
  1309.83        500.000        3287.63     
  1308.76        500.000        3276.54     
  1307.69        500.000        3258.25     
  1306.62        500.000        3277.96     
  1305.55        500.000        3278.23     
  1304.49        500.000        3280.47     
  1303.42        500.000        3281.24     
  1302.35        500.000        3281.51     
  1301.28        500.000        3282.27     
  1300.21        500.000        3282.56     
  1299.14        500.000        3282.67     
  1298.08        500.000        3283.67     
  1297.01        500.000        3285.24     
  1295.94        500.000        3283.77     
  1294.87        500.000        3284.53     
  1293.80        500.000        3281.35     
  1292.73        500.000        3284.25     
  1291.67        500.000        3282.78     
  1290.60        500.000        3282.71     
  1289.53        500.000        3284.22     
  1288.46        500.000        3283.37     
  1287.39        500.000        3282.36     
  1286.32        500.000        3283.30     
  1285.26        500.000        3280.88     
  1284.19        500.000        3279.10     
  1283.12        500.000        3282.97     
  1282.05        500.000        3273.89     
  1280.98        500.000        3280.75     
  1279.91        500.000        3276.24     
  1278.84        500.000        2935.34     
  1277.78        500.000        2822.65     
  1276.71        500.000        2828.70     
  1275.64        500.000        2830.92     
  1274.57        500.000        2833.48     
  1273.50        500.000        2835.80     
  1272.43        500.000        2838.02     
  1271.37        500.000        2839.57     
  1270.30        500.000        2841.41     
  1269.23        500.000        2843.30     
  1268.16        500.000        2844.81     
  1267.09        500.000        2846.34     
  1266.02        500.000        2848.23     
  1264.96        500.000        2849.04     
  1263.89        500.000        2851.15     
  1262.82        500.000        2851.96     
  1261.75        500.000        2852.81     
  1260.68        500.000        2854.99     
  1259.61        500.000        2855.56     
  1258.55        500.000        2856.92     
  1257.48        500.000        2857.77     
  1256.41        500.000        2858.93     
  1255.34        500.000        2859.78     
  1254.27        500.000        2860.73     
  1253.20        500.000        2861.58     
  1252.14        500.000        2862.35     
  1251.07        500.000        2863.10     
  1250.00        500.000        2863.95     
  1248.93        500.000        2864.83     
  1247.86        500.000        2864.56     
  1246.79        500.000        2866.94     
  1245.73        500.000        2865.93     
  1244.66        500.000        2868.76     
  1243.59        500.000        2867.61     
  1242.52        500.000        2868.40     
  1241.45        500.000        2868.52     
  1240.38        500.000        2868.49     
  1239.32        500.000        2870.43     
  1238.25        500.000        2870.71     
  1237.18        500.000        2870.91     
  1236.11        500.000        2870.74     
  1235.04        500.000        2871.42     
  1233.97        500.000        2872.02     
  1232.90        500.000        2873.32     
  1231.84        500.000        2872.19     
  1230.77        500.000        2871.49     
  1229.70        500.000        2872.84     
  1228.63        500.000        2872.70     
  1227.56        500.000        2872.68     
  1226.49        500.000        2872.54     
  1225.43        500.000        2872.70     
  1224.36        500.000        2871.27     
  1223.29        500.000        2872.40     
  1222.22        500.000        2871.06     
  1221.15        500.000        2871.59     
  1220.08        500.000        2870.80     
  1219.02        500.000        2870.63     
  1217.95        500.000        2870.49     
  1216.88        500.000        2747.83     
  1215.81        500.000        2683.18     
  1214.74        500.000        2683.91     
  1213.67        500.000        2684.39     
  1212.61        500.000        2681.13     
  1211.54        500.000        2708.08     
  1210.47        500.000        2695.55     
  1209.40        500.000        2698.52     
  1208.33        500.000        2696.59     
  1207.26        500.000        3609.84     
  1206.20        500.000        3429.73     
  1205.13        500.000        2947.45     
  1204.06        500.000        2855.44     
  1202.99        500.000        2695.82     
  1201.92        500.000        2674.06     
  1200.85        500.000        2967.28     
  1199.79        500.000        2676.46     
  1198.72        500.000        2651.63     
  1197.65        500.000        2682.74     
  1196.58        500.000        2620.07     
  1195.51        500.000        3099.99     
  1194.44        500.000        2629.10     
  1193.38        500.000        3107.31     
  1192.31        500.000        2549.55     
  1191.24        500.000        2899.58     
  1190.17        500.000        2626.53     
  1189.10        500.000        2626.59     
  1188.03        500.000        2626.64     
  1186.96        500.000        2626.68     
  1185.90        500.000        2626.58     
  1184.83        500.000        2626.78     
  1183.76        500.000        2626.82     
  1182.69        500.000        2626.87     
  1181.62        500.000        2626.92     
  1180.55        500.000        2626.96     
  1179.49        500.000        2627.01     
  1178.42        500.000        2627.05     
  1177.35        500.000        2627.10     
  1176.28        500.000        2627.15     
  1175.21        500.000        2627.19     
  1174.14        500.000        2627.24     
  1173.08        500.000        2627.29     
  1172.01        500.000        2627.33     
  1170.94        500.000        2627.38     
  1169.87        500.000        2627.42     
  1168.80        500.000        2627.05     
  1167.73        500.000        2627.52     
  1166.67        500.000        2627.56     
  1165.60        500.000        2627.61     
  1164.53        500.000        2627.65     
  1163.46        500.000        2627.70     
  1162.39        500.000        2627.75     
  1161.32        500.000        2627.79     
  1160.26        500.000        2627.84     
  1159.19        500.000        2627.89     
  1158.12        500.000        2627.93     
  1157.05        500.000        2627.98     
  1155.98        500.000        2628.02     
  1154.91        500.000        2628.07     
  1153.85        500.000        2628.12     
  1152.78        500.000        2627.74     
  1151.71        500.000        2627.79     
  1150.64        500.000        2627.84     
  1149.57        500.000        2627.88     
  1148.50        500.000        2627.93     
  1147.44        500.000        2627.97     
  1146.37        500.000        2628.02     
  1145.30        500.000        2628.48     
  1144.23        500.000        2628.11     
  1143.16        500.000        2628.57     
  1142.09        500.000        2628.20     
  1141.02        500.000        2628.25     
  1139.96        500.000        2628.29     
  1138.89        500.000        2628.34     
  1137.82        500.000        2628.39     
  1136.75        500.000        2628.43     
  1135.68        500.000        2628.48     
  1134.61        500.000        2628.48     
  1133.55        500.000        2628.53     
  1132.48        500.000        2628.57     
  1131.41        500.000        2628.67     
  1130.34        500.000        2628.71     
  1129.27        500.000        2628.76     
  1128.20        500.000        2628.81     
  1127.14        500.000        2628.85     
  1126.07        500.000        2628.90     
  1125.00        500.000        2628.94     
  1123.93        500.000        2628.99     
  1122.86        500.000        2629.03     
  1121.79        500.000        2629.08     
  1120.73        500.000        2629.13     
  1119.66        500.000        2629.17     
  1118.59        500.000        2629.22     
  1117.52        500.000        2629.26     
  1116.45        500.000        2629.31     
  1115.38        500.000        2629.76     
  1114.32        500.000        2629.40     
  1113.25        500.000        2629.85     
  1112.18        500.000        2629.49     
  1111.11        500.000        2629.54     
  1110.04        500.000        2629.58     
  1108.97        500.000        2629.63     
  1107.91        500.000        2630.07     
  1106.84        500.000        2629.69     
  1105.77        500.000        2629.73     
  1104.70        500.000        2629.78     
  1103.63        500.000        2629.85     
  1102.56        500.000        2629.86     
  1101.50        500.000        2629.94     
  1100.43        500.000        2629.98     
  1099.36        500.000        2630.03     
  1098.29        500.000        2630.08     
  1097.22        500.000        2630.13     
  1096.15        500.000        2630.18     
  1095.09        500.000        2630.22     
  1094.02        500.000        2630.26     
  1092.95        500.000        2630.44     
  1091.88        500.000        2630.50     
  1090.81        500.000        2630.56     
  1089.74        500.000        2630.62     
  1088.67        500.000        2630.67     
  1087.61        500.000        2630.74     
  1086.54        500.000        2630.79     
  1085.47        500.000        2630.70     
  1084.40        500.000        2630.67     
  1083.33        500.000        2630.71     
  1082.26        500.000        2630.75     
  1081.20        500.000        2630.79     
  1080.13        500.000        2630.56     
  1079.06        500.000        2630.85     
  1077.99        500.000        2630.92     
  1076.92        500.000        2630.94     
  1075.85        500.000        2630.99     
  1074.79        500.000        2631.03     
  1073.72        500.000        2631.08     
  1072.65        500.000        2631.12     
  1071.58        500.000        2631.17     
  1070.51        500.000        2631.21     
  1069.44        500.000        2631.28     
  1068.38        500.000        2631.38     
  1067.31        500.000        2631.39     
  1066.24        500.000        2631.40     
  1065.17        500.000        2631.44     
  1064.10        500.000        2631.48     
  1063.03        500.000        2631.53     
  1061.97        500.000        2629.70     
  1060.90        500.000        2629.57     
  1059.83        500.000        2629.58     
  1058.76        500.000        2629.58     
  1057.69        500.000        2629.59     
  1056.62        500.000        2629.60     
  1055.56        500.000        2629.61     
  1054.49        500.000        2629.62     
  1053.42        500.000        2629.64     
  1052.35        500.000        2629.65     
  1051.28        500.000        2629.66     
  1050.21        500.000        2629.68     
  1049.15        500.000        2629.69     
  1048.08        500.000        2629.71     
  1047.01        500.000        2629.73     
  1045.94        500.000        2629.75     
  1044.87        500.000        2629.77     
  1043.80        500.000        2629.78     
  1042.73        500.000        2629.80     
  1041.67        500.000        2629.83     
  1040.60        500.000        2629.85     
  1039.53        500.000        2629.87     
  1038.46        500.000        2629.89     
  1037.39        500.000        2629.91     
  1036.32        500.000        2629.93     
  1035.26        500.000        2629.96     
  1034.19        500.000        2629.98     
  1033.12        500.000        2630.01     
  1032.05        500.000        2630.03     
  1030.98        500.000        2630.05     
  1029.91        500.000        2630.08     
  1028.85        500.000        2630.10     
  1027.78        500.000        2630.13     
  1026.71        500.000        2630.16     
  1025.64        500.000        2630.18     
  1024.57        500.000        2630.21     
  1023.50        500.000        2630.24     
  1022.44        500.000        2630.26     
  1021.37        500.000        2633.58     
  1020.30        500.000        2630.32     
  1019.23        500.000        2630.35     
  1018.16        500.000        2630.37     
  1017.09        500.000        2630.40     
  1016.03        500.000        2631.01     
  1014.96        500.000        2630.46     
  1013.89        500.000        2630.49     
  1012.82        500.000        2630.52     
  1011.75        500.000        2630.55     
  1010.68        500.000        2630.57     
  1009.62        500.000        2630.61     
  1008.55        500.000        2630.64     
  1007.48        500.000        2630.67     
  1006.41        500.000        2630.70     
  1005.34        500.000        2630.73     
  1004.27        500.000        2630.76     
  1003.21        500.000        2630.79     
  1002.14        500.000        2630.82     
  1001.07        500.000        2630.85     
