|6.6.6
Archiving\03_Data\eqfrac/QFM_m3.75/Y98/Y98_6.tab                          
           1
T(K)    
  0.000000000000000E+000
  0.000000000000000E+000
           0
           3
T(K)           P(bar)         rho,kg/m3     
  1490.38        2500.00        3274.83     
  1489.15        2500.00        3275.36     
  1487.92        2500.00        3276.29     
  1486.69        2500.00        3277.51     
  1485.46        2500.00        3278.56     
  1484.23        2500.00        3280.14     
  1483.01        2500.00        3281.90     
  1481.78        2500.00        3282.85     
  1480.55        2500.00        3284.77     
  1479.32        2500.00        3285.60     
  1478.09        2500.00        3287.23     
  1476.86        2500.00        3288.60     
  1475.63        2500.00        3291.34     
  1474.40        2500.00        3293.65     
  1473.17        2500.00        3303.87     
  1471.94        2500.00        3283.12     
  1470.72        2500.00        3296.46     
  1469.49        2500.00        3297.44     
  1468.26        2500.00        3298.52     
  1467.03        2500.00        3299.44     
  1465.80        2500.00        3300.67     
  1464.57        2500.00        3300.83     
  1463.34        2500.00        3302.64     
  1462.11        2500.00        3303.43     
  1460.88        2500.00        3302.76     
  1459.65        2500.00        3305.45     
  1458.43        2500.00        3306.63     
  1457.20        2500.00        3307.52     
  1455.97        2500.00        3308.45     
  1454.74        2500.00        3306.89     
  1453.51        2500.00        3312.73     
  1452.28        2500.00        3311.52     
  1451.05        2500.00        3312.63     
  1449.82        2500.00        3151.93     
  1448.59        2500.00        3131.75     
  1447.36        2500.00        3133.32     
  1446.14        2500.00        3135.72     
  1444.91        2500.00        3137.18     
  1443.68        2500.00        3139.07     
  1442.45        2500.00        3140.99     
  1441.22        2500.00        3143.00     
  1439.99        2500.00        3144.90     
  1438.76        2500.00        3146.52     
  1437.53        2500.00        3148.65     
  1436.30        2500.00        3150.60     
  1435.07        2500.00        3152.11     
  1433.84        2500.00        3153.96     
  1432.62        2500.00        3155.95     
  1431.39        2500.00        3157.70     
  1430.16        2500.00        3159.37     
  1428.93        2500.00        3161.62     
  1427.70        2500.00        3163.50     
  1426.47        2500.00        3165.27     
  1425.24        2500.00        3167.45     
  1424.01        2500.00        3169.12     
  1422.78        2500.00        3170.79     
  1421.55        2500.00        3173.12     
  1420.33        2500.00        3174.92     
  1419.10        2500.00        3176.85     
  1417.87        2500.00        3178.83     
  1416.64        2500.00        3180.71     
  1415.41        2500.00        3183.57     
  1414.18        2500.00        3183.52     
  1412.95        2500.00        3185.31     
  1411.72        2500.00        3189.53     
  1410.49        2500.00        3190.45     
  1409.26        2500.00        3192.39     
  1408.04        2500.00        3194.35     
  1406.81        2500.00        3196.63     
  1405.58        2500.00        3198.19     
  1404.35        2500.00        3200.10     
  1403.12        2500.00        3202.22     
  1401.89        2500.00        3203.64     
  1400.66        2500.00        3206.15     
  1399.43        2500.00        3208.03     
  1398.20        2500.00        3209.96     
  1396.97        2500.00        3211.83     
  1395.75        2500.00        3213.91     
  1394.52        2500.00        3215.13     
  1393.29        2500.00        3218.12     
  1392.06        2500.00        3219.57     
  1390.83        2500.00        3220.68     
  1389.60        2500.00        3223.69     
  1388.37        2500.00        3224.28     
  1387.14        2500.00        3226.60     
  1385.91        2500.00        3231.32     
  1384.68        2500.00        3230.34     
  1383.46        2500.00        3231.96     
  1382.23        2500.00        3229.29     
  1381.00        2500.00        3235.49     
  1379.77        2500.00        3241.10     
  1378.54        2500.00        3233.06     
  1377.31        2500.00        3241.17     
  1376.08        2500.00        3242.80     
  1374.85        2500.00        3245.30     
  1373.62        2500.00        3246.51     
  1372.39        2500.00        3247.86     
  1371.16        2500.00        3249.30     
  1369.94        2500.00        3251.74     
  1368.71        2500.00        3252.88     
  1367.48        2500.00        3254.70     
  1366.25        2500.00        3256.18     
  1365.02        2500.00        3257.76     
  1363.79        2500.00        3258.36     
  1362.56        2500.00        3260.81     
  1361.33        2500.00        3262.59     
  1360.10        2500.00        3264.16     
  1358.87        2500.00        3265.52     
  1357.65        2500.00        3267.22     
  1356.42        2500.00        3269.11     
  1355.19        2500.00        3270.01     
  1353.96        2500.00        3271.63     
  1352.73        2500.00        3272.67     
  1351.50        2500.00        3274.18     
  1350.27        2500.00        3274.87     
  1349.04        2500.00        3276.70     
  1347.81        2500.00        3278.57     
  1346.58        2500.00        3280.04     
  1345.36        2500.00        3281.01     
  1344.13        2500.00        3282.31     
  1342.90        2500.00        3284.08     
  1341.67        2500.00        3284.73     
  1340.44        2500.00        3285.58     
  1339.21        2500.00        3287.11     
  1337.98        2500.00        3287.87     
  1336.75        2500.00        3288.29     
  1335.52        2500.00        3320.55     
  1334.29        2500.00        3332.06     
  1333.07        2500.00        3332.63     
  1331.84        2500.00        3333.16     
  1330.61        2500.00        3334.49     
  1329.38        2500.00        3335.28     
  1328.15        2500.00        3336.43     
  1326.92        2500.00        3336.68     
  1325.69        2500.00        3337.19     
  1324.46        2500.00        3337.82     
  1323.23        2500.00        3338.46     
  1322.00        2500.00        3339.34     
  1320.77        2500.00        3339.52     
  1319.55        2500.00        3339.78     
  1318.32        2500.00        3340.41     
  1317.09        2500.00        3341.51     
  1315.86        2500.00        3340.90     
  1314.63        2500.00        3341.83     
  1313.40        2500.00        3341.90     
  1312.17        2500.00        3342.44     
  1310.94        2500.00        3342.90     
  1309.71        2500.00        3342.58     
  1308.48        2500.00        3349.62     
  1307.26        2500.00        2676.72     
  1306.03        2500.00        3370.96     
  1304.80        2500.00        3342.48     
  1303.57        2500.00        3342.88     
  1302.34        2500.00        2875.78     
  1301.11        2500.00        2855.22     
  1299.88        2500.00        2860.32     
  1298.65        2500.00        2865.10     
  1297.42        2500.00        2869.47     
  1296.19        2500.00        2873.47     
  1294.97        2500.00        2873.37     
  1293.74        2500.00        2882.30     
  1292.51        2500.00        2883.10     
  1291.28        2500.00        2884.57     
  1290.05        2500.00        2883.81     
  1288.82        2500.00        2903.24     
  1287.59        2500.00        2886.93     
  1286.36        2500.00        2778.20     
  1285.13        2500.00        2890.06     
  1283.90        2500.00        2946.75     
  1282.68        2500.00        2895.67     
  1281.45        2500.00        2894.84     
  1280.22        2500.00        2892.53     
  1278.99        2500.00        2894.96     
  1277.76        2500.00        2893.60     
  1276.53        2500.00        2869.07     
  1275.30        2500.00        2926.80     
  1274.07        2500.00        2897.57     
  1272.84        2500.00        2894.60     
  1271.61        2500.00        2892.32     
  1270.38        2500.00        2893.01     
  1269.16        2500.00        2844.70     
  1267.93        2500.00        3018.45     
  1266.70        2500.00        2751.92     
  1265.47        2500.00        2873.19     
  1264.24        2500.00        2745.18     
  1263.01        2500.00        3184.13     
  1261.78        2500.00        3272.80     
  1260.55        2500.00        3013.82     
  1259.32        2500.00        2869.42     
  1258.09        2500.00        2861.91     
  1256.87        2500.00        2800.68     
  1255.64        2500.00        3099.81     
  1254.41        2500.00        2936.60     
  1253.18        2500.00        2866.16     
  1251.95        2500.00        2793.48     
  1250.72        2500.00        2895.64     
  1249.49        2500.00        3009.85     
  1248.26        2500.00        2923.49     
  1247.03        2500.00        2840.26     
  1245.80        2500.00        2572.23     
  1244.58        2500.00        3177.25     
  1243.35        2500.00        2798.57     
  1242.12        2500.00        3375.17     
  1240.89        2500.00        2823.96     
  1239.66        2500.00        2917.87     
  1238.43        2500.00        2643.52     
  1237.20        2500.00        2574.45     
  1235.97        2500.00        2914.23     
  1234.74        2500.00        2728.27     
  1233.51        2500.00        3076.92     
  1232.29        2500.00        2675.55     
  1231.06        2500.00        2694.36     
  1229.83        2500.00        2678.86     
  1228.60        2500.00        2678.26     
  1227.37        2500.00        2678.32     
  1226.14        2500.00        2678.38     
  1224.91        2500.00        2678.45     
  1223.68        2500.00        2678.51     
  1222.45        2500.00        2679.26     
  1221.22        2500.00        2679.33     
  1220.00        2500.00        2679.15     
  1218.77        2500.00        2679.22     
  1217.54        2500.00        2679.28     
  1216.31        2500.00        2679.34     
  1215.08        2500.00        2679.41     
  1213.85        2500.00        2679.47     
  1212.62        2500.00        2679.78     
  1211.39        2500.00        2679.59     
  1210.16        2500.00        2679.65     
  1208.93        2500.00        2679.72     
  1207.70        2500.00        2679.78     
  1206.48        2500.00        2679.84     
  1205.25        2500.00        2679.91     
  1204.02        2500.00        2679.97     
  1202.79        2500.00        2680.03     
  1201.56        2500.00        2680.09     
  1200.33        2500.00        2680.15     
  1199.10        2500.00        2680.22     
  1197.87        2500.00        2680.28     
  1196.64        2500.00        2680.34     
  1195.41        2500.00        2680.41     
  1194.19        2500.00        2680.47     
  1192.96        2500.00        2680.53     
  1191.73        2500.00        2680.59     
  1190.50        2500.00        2680.66     
  1189.27        2500.00        2680.72     
  1188.04        2500.00        2680.78     
  1186.81        2500.00        2680.84     
  1185.58        2500.00        2680.91     
  1184.35        2500.00        2680.97     
  1183.12        2500.00        2681.03     
  1181.90        2500.00        2681.09     
  1180.67        2500.00        2681.16     
  1179.44        2500.00        2681.22     
  1178.21        2500.00        2681.28     
  1176.98        2500.00        2681.34     
  1175.75        2500.00        2681.41     
  1174.52        2500.00        2681.47     
  1173.29        2500.00        2681.53     
  1172.06        2500.00        2681.59     
  1170.83        2500.00        2681.66     
  1169.61        2500.00        2681.72     
  1168.38        2500.00        2681.78     
  1167.15        2500.00        2681.84     
  1165.92        2500.00        2681.91     
  1164.69        2500.00        2681.97     
  1163.46        2500.00        2682.03     
  1162.23        2500.00        2682.07     
  1161.00        2500.00        2682.14     
  1159.77        2500.00        2682.20     
  1158.54        2500.00        2682.26     
  1157.31        2500.00        2682.32     
  1156.09        2500.00        2682.39     
  1154.86        2500.00        2682.44     
  1153.63        2500.00        2682.50     
  1152.40        2500.00        2682.57     
  1151.17        2500.00        2682.63     
  1149.94        2500.00        2682.72     
  1148.71        2500.00        2682.78     
  1147.48        2500.00        2682.84     
  1146.25        2500.00        2682.90     
  1145.02        2500.00        2682.97     
  1143.80        2500.00        2683.01     
  1142.57        2500.00        2683.07     
  1141.34        2500.00        2683.14     
  1140.11        2500.00        2683.20     
  1138.88        2500.00        2683.26     
  1137.65        2500.00        2683.33     
  1136.42        2500.00        2683.39     
  1135.19        2500.00        2683.45     
  1133.96        2500.00        2683.52     
  1132.73        2500.00        2683.58     
  1131.51        2500.00        2683.64     
  1130.28        2500.00        2683.71     
  1129.05        2500.00        2683.77     
  1127.82        2500.00        2683.83     
  1126.59        2500.00        2683.90     
  1125.36        2500.00        2683.95     
  1124.13        2500.00        2683.72     
  1122.90        2500.00        2684.61     
  1121.67        2500.00        2684.67     
  1120.44        2500.00        2684.73     
  1119.22        2500.00        2684.80     
  1117.99        2500.00        2684.86     
  1116.76        2500.00        2684.92     
  1115.53        2500.00        2684.99     
  1114.30        2500.00        2685.05     
  1113.07        2500.00        2685.11     
  1111.84        2500.00        2685.17     
  1110.61        2500.00        2685.24     
  1109.38        2500.00        2685.30     
  1108.15        2500.00        2685.36     
  1106.92        2500.00        2685.43     
  1105.70        2500.00        2685.49     
  1104.47        2500.00        2685.55     
  1103.24        2500.00        2685.62     
  1102.01        2500.00        2685.68     
  1100.78        2500.00        2685.74     
  1099.55        2500.00        2685.80     
  1098.32        2500.00        2685.87     
  1097.09        2500.00        2685.93     
  1095.86        2500.00        2685.99     
  1094.63        2500.00        2686.05     
  1093.41        2500.00        2686.12     
  1092.18        2500.00        2685.96     
  1090.95        2500.00        2686.06     
  1089.72        2500.00        2686.19     
  1088.49        2500.00        2686.37     
  1087.26        2500.00        2686.15     
  1086.03        2500.00        2685.95     
  1084.80        2500.00        2686.01     
  1083.57        2500.00        2686.09     
  1082.34        2500.00        2686.15     
  1081.12        2500.00        2686.20     
  1079.89        2500.00        2686.26     
  1078.66        2500.00        2686.32     
  1077.43        2500.00        2686.38     
  1076.20        2500.00        2686.13     
  1074.97        2500.00        2687.26     
  1073.74        2500.00        2686.97     
  1072.51        2500.00        2686.59     
  1071.28        2500.00        2686.71     
  1070.05        2500.00        2686.76     
  1068.83        2500.00        2686.83     
  1067.60        2500.00        2686.89     
  1066.37        2500.00        2686.96     
  1065.14        2500.00        2687.01     
  1063.91        2500.00        2687.08     
  1062.68        2500.00        2687.14     
  1061.45        2500.00        2687.20     
  1060.22        2500.00        2687.26     
  1058.99        2500.00        2687.33     
  1057.76        2500.00        2687.39     
  1056.54        2500.00        2687.45     
  1055.31        2500.00        2687.51     
  1054.08        2500.00        2687.57     
  1052.85        2500.00        2687.63     
  1051.62        2500.00        2687.69     
  1050.39        2500.00        2687.75     
  1049.16        2500.00        2687.82     
  1047.93        2500.00        2687.88     
  1046.70        2500.00        2687.94     
  1045.47        2500.00        2688.00     
  1044.24        2500.00        2688.06     
  1043.02        2500.00        2688.12     
  1041.79        2500.00        2688.18     
  1040.56        2500.00        2688.25     
  1039.33        2500.00        2688.31     
  1038.10        2500.00        2688.37     
  1036.87        2500.00        2688.43     
  1035.64        2500.00        2688.49     
  1034.41        2500.00        2688.55     
  1033.18        2500.00        2688.61     
  1031.95        2500.00        2688.67     
  1030.73        2500.00        2689.16     
  1029.50        2500.00        2689.24     
  1028.27        2500.00        2688.30     
  1027.04        2500.00        2688.47     
  1025.81        2500.00        2688.53     
  1024.58        2500.00        2689.17     
  1023.35        2500.00        2688.64     
  1022.12        2500.00        2688.70     
  1020.89        2500.00        2688.76     
  1019.66        2500.00        2689.24     
  1018.44        2500.00        2689.12     
  1017.21        2500.00        2688.97     
  1015.98        2500.00        2689.03     
  1014.75        2500.00        2689.52     
  1013.52        2500.00        2689.58     
  1012.29        2500.00        2689.80     
  1011.06        2500.00        2690.13     
  1009.83        2500.00        2690.02     
  1008.60        2500.00        2689.65     
  1007.37        2500.00        2690.32     
  1006.15        2500.00        2690.32     
  1004.92        2500.00        2690.46     
  1003.69        2500.00        2690.58     
  1002.46        2500.00        2690.45     
  1001.23        2500.00        2690.64     
  1000.00        2500.00        2690.41     
