|6.6.6
Archiving\03_Data\eq/QFM_m0.5/GRV/GRV_3.tab                               
           1
T(K)    
  0.000000000000000E+000
  0.000000000000000E+000
           0
           9
T(K)           P(bar)         melt(TH)       pxmn           Sp(TH)         O(HP)          Opx(TH)        Cpx(TH)        Cpx(TH)       
  2000.00        2500.00        99.3220       0.678021                 NaN            NaN            NaN            NaN            NaN
  1996.79        2500.00        99.3219       0.678092                 NaN            NaN            NaN            NaN            NaN
  1993.59        2500.00        99.3218       0.678164                 NaN            NaN            NaN            NaN            NaN
  1990.38        2500.00        99.3218       0.678235                 NaN            NaN            NaN            NaN            NaN
  1987.18        2500.00        99.3217       0.678307                 NaN            NaN            NaN            NaN            NaN
  1983.97        2500.00        99.3216       0.678379                 NaN            NaN            NaN            NaN            NaN
  1980.77        2500.00        99.3215       0.678451                 NaN            NaN            NaN            NaN            NaN
  1977.56        2500.00        99.3215       0.678523                 NaN            NaN            NaN            NaN            NaN
  1974.36        2500.00        99.3214       0.678595                 NaN            NaN            NaN            NaN            NaN
  1971.15        2500.00        99.3213       0.678666                 NaN            NaN            NaN            NaN            NaN
  1967.95        2500.00        99.3213       0.678738                 NaN            NaN            NaN            NaN            NaN
  1964.74        2500.00        99.3212       0.678810                 NaN            NaN            NaN            NaN            NaN
  1961.54        2500.00        99.3211       0.678882                 NaN            NaN            NaN            NaN            NaN
  1958.33        2500.00        99.3210       0.678954                 NaN            NaN            NaN            NaN            NaN
  1955.13        2500.00        99.3210       0.679026                 NaN            NaN            NaN            NaN            NaN
  1951.92        2500.00        99.3209       0.679098                 NaN            NaN            NaN            NaN            NaN
  1948.72        2500.00        99.3208       0.679170                 NaN            NaN            NaN            NaN            NaN
  1945.51        2500.00        99.3208       0.679242                 NaN            NaN            NaN            NaN            NaN
  1942.31        2500.00        99.3207       0.679314                 NaN            NaN            NaN            NaN            NaN
  1939.10        2500.00        99.3206       0.679386                 NaN            NaN            NaN            NaN            NaN
  1935.90        2500.00        99.3205       0.679458                 NaN            NaN            NaN            NaN            NaN
  1932.69        2500.00        99.3205       0.679530                 NaN            NaN            NaN            NaN            NaN
  1929.49        2500.00        99.3204       0.679603                 NaN            NaN            NaN            NaN            NaN
  1926.28        2500.00        99.3203       0.679675                 NaN            NaN            NaN            NaN            NaN
  1923.08        2500.00        99.3203       0.679747                 NaN            NaN            NaN            NaN            NaN
  1919.87        2500.00        99.3202       0.679819                 NaN            NaN            NaN            NaN            NaN
  1916.67        2500.00        99.3201       0.679892                 NaN            NaN            NaN            NaN            NaN
  1913.46        2500.00        99.3200       0.679964                 NaN            NaN            NaN            NaN            NaN
  1910.26        2500.00        99.3200       0.680036                 NaN            NaN            NaN            NaN            NaN
  1907.05        2500.00        99.3199       0.680108                 NaN            NaN            NaN            NaN            NaN
  1903.85        2500.00        99.3198       0.680181                 NaN            NaN            NaN            NaN            NaN
  1900.64        2500.00        99.3197       0.680253                 NaN            NaN            NaN            NaN            NaN
  1897.44        2500.00        99.3197       0.680326                 NaN            NaN            NaN            NaN            NaN
  1894.23        2500.00        99.3196       0.680398                 NaN            NaN            NaN            NaN            NaN
  1891.03        2500.00        99.3195       0.680470                 NaN            NaN            NaN            NaN            NaN
  1887.82        2500.00        99.3195       0.680542                 NaN            NaN            NaN            NaN            NaN
  1884.62        2500.00        99.3194       0.680615                 NaN            NaN            NaN            NaN            NaN
  1881.41        2500.00        99.3193       0.680687                 NaN            NaN            NaN            NaN            NaN
  1878.21        2500.00        99.3192       0.680760                 NaN            NaN            NaN            NaN            NaN
  1875.00        2500.00        99.3192       0.680832                 NaN            NaN            NaN            NaN            NaN
  1871.79        2500.00        99.3191       0.680905                 NaN            NaN            NaN            NaN            NaN
  1868.59        2500.00        99.3190       0.680977                 NaN            NaN            NaN            NaN            NaN
  1865.38        2500.00        99.3190       0.681050                 NaN            NaN            NaN            NaN            NaN
  1862.18        2500.00        99.3189       0.681122                 NaN            NaN            NaN            NaN            NaN
  1858.97        2500.00        99.3188       0.681194                 NaN            NaN            NaN            NaN            NaN
  1855.77        2500.00        99.3187       0.681267                 NaN            NaN            NaN            NaN            NaN
  1852.56        2500.00        99.3187       0.681340                 NaN            NaN            NaN            NaN            NaN
  1849.36        2500.00        99.3186       0.681412                 NaN            NaN            NaN            NaN            NaN
  1846.15        2500.00        99.3185       0.681485                 NaN            NaN            NaN            NaN            NaN
  1842.95        2500.00        99.3184       0.681558                 NaN            NaN            NaN            NaN            NaN
  1839.74        2500.00        99.3184       0.681630                 NaN            NaN            NaN            NaN            NaN
  1836.54        2500.00        99.3183       0.681703                 NaN            NaN            NaN            NaN            NaN
  1833.33        2500.00        99.3135       0.681781       0.473613E-002            NaN            NaN            NaN            NaN
  1830.13        2500.00        99.2987       0.681873       0.194223E-001            NaN            NaN            NaN            NaN
  1826.92        2500.00        99.2839       0.681964       0.341123E-001            NaN            NaN            NaN            NaN
  1823.72        2500.00        99.2691       0.682056       0.488063E-001            NaN            NaN            NaN            NaN
  1820.51        2500.00        99.2543       0.682148       0.635043E-001            NaN            NaN            NaN            NaN
  1817.31        2500.00        99.2403       0.682238       0.774825E-001            NaN            NaN            NaN            NaN
  1814.10        2500.00        99.2262       0.682328       0.914643E-001            NaN            NaN            NaN            NaN
  1810.90        2500.00        99.2121       0.682418       0.105450                 NaN            NaN            NaN            NaN
  1807.69        2500.00        99.1981       0.682508       0.119439                 NaN            NaN            NaN            NaN
  1804.49        2500.00        99.1840       0.682598       0.133432                 NaN            NaN            NaN            NaN
  1801.28        2500.00        99.1699       0.682689       0.147429                 NaN            NaN            NaN            NaN
  1798.08        2500.00        99.1558       0.682779       0.161429                 NaN            NaN            NaN            NaN
  1794.87        2500.00        99.1417       0.682869       0.175433                 NaN            NaN            NaN            NaN
  1791.67        2500.00        99.1285       0.682957       0.188569                 NaN            NaN            NaN            NaN
  1788.46        2500.00        99.1152       0.683046       0.201709                 NaN            NaN            NaN            NaN
  1785.26        2500.00        99.1020       0.683134       0.214852                 NaN            NaN            NaN            NaN
  1782.05        2500.00        99.0888       0.683223       0.227998                 NaN            NaN            NaN            NaN
  1778.85        2500.00        99.0755       0.683311       0.241148                 NaN            NaN            NaN            NaN
  1775.64        2500.00        99.0623       0.683400       0.254301                 NaN            NaN            NaN            NaN
  1772.44        2500.00        99.0491       0.683489       0.267457                 NaN            NaN            NaN            NaN
  1769.23        2500.00        99.0358       0.683577       0.280617                 NaN            NaN            NaN            NaN
  1766.03        2500.00        99.0232       0.683665       0.293145                 NaN            NaN            NaN            NaN
  1762.82        2500.00        99.0106       0.683752       0.305677                 NaN            NaN            NaN            NaN
  1759.62        2500.00        98.9979       0.683839       0.318253                 NaN            NaN            NaN            NaN
  1756.41        2500.00        98.8191       0.683988       0.330473       0.166482                 NaN            NaN            NaN
  1753.21        2500.00        98.0809       0.684344       0.341707       0.893073                 NaN            NaN            NaN
  1750.00        2500.00        97.3420       0.684698       0.352952        1.62039                 NaN            NaN            NaN
  1746.79        2500.00        96.6023       0.685050       0.364208        2.34843                 NaN            NaN            NaN
  1743.59        2500.00        95.8619       0.685401       0.375474        3.07718                 NaN            NaN            NaN
  1740.38        2500.00        95.1112       0.685755       0.386090        3.81698                 NaN            NaN            NaN
  1737.18        2500.00        94.3597       0.686107       0.396716        4.55749                 NaN            NaN            NaN
  1733.97        2500.00        93.6075       0.686457       0.407351        5.29873                 NaN            NaN            NaN
  1730.77        2500.00        92.8545       0.686806       0.417996        6.04068                 NaN            NaN            NaN
  1727.56        2500.00        92.1009       0.687152       0.428650        6.78333                 NaN            NaN            NaN
  1724.36        2500.00        91.3465       0.687496       0.439313        7.52669                 NaN            NaN            NaN
  1721.15        2500.00        90.5914       0.687838       0.449986        8.27074                 NaN            NaN            NaN
  1717.95        2500.00        89.8357       0.688178       0.460667        9.01547                 NaN            NaN            NaN
  1714.74        2500.00        89.0791       0.688519       0.470503        9.76187                 NaN            NaN            NaN
  1711.54        2500.00        88.3218       0.688856       0.480348        10.5090                 NaN            NaN            NaN
  1708.33        2500.00        87.5639       0.689192       0.490200        11.2567                 NaN            NaN            NaN
  1705.13        2500.00        86.8053       0.689525       0.500060        12.0051                 NaN            NaN            NaN
  1701.92        2500.00        86.0460       0.689857       0.509927        12.7542                 NaN            NaN            NaN
  1698.72        2500.00        85.2861       0.690185       0.519802        13.5039                 NaN            NaN            NaN
  1695.51        2500.00        84.5256       0.690512       0.529685        14.2542                 NaN            NaN            NaN
  1692.31        2500.00        83.7644       0.690836       0.539574        15.0052                 NaN            NaN            NaN
  1689.10        2500.00        83.0250       0.691151       0.548576        15.7353                 NaN            NaN            NaN
  1685.90        2500.00        82.2850       0.691464       0.557584        16.4659                 NaN            NaN            NaN
  1682.69        2500.00        81.5445       0.691774       0.566598        17.1971                 NaN            NaN            NaN
  1679.49        2500.00        80.8034       0.692082       0.575617        17.9289                 NaN            NaN            NaN
  1676.28        2500.00        80.0618       0.692387       0.584643        18.6612                 NaN            NaN            NaN
  1673.08        2500.00        79.3195       0.692690       0.593674        19.3941                 NaN            NaN            NaN
  1669.87        2500.00        78.5768       0.692990       0.602710        20.1275                 NaN            NaN            NaN
  1666.67        2500.00        77.8335       0.693288       0.611753        20.8615                 NaN            NaN            NaN
  1663.46        2500.00        75.7126       0.694899       0.620346        21.2189        1.75329                 NaN            NaN
  1660.26        2500.00        73.5384       0.696579       0.628276        21.5150        3.62168                 NaN            NaN
  1657.05        2500.00        71.4994       0.698166       0.635258        21.7856        5.38157                 NaN            NaN
  1653.85        2500.00        69.4512       0.699758       0.642270        22.0574        7.14942                 NaN            NaN
  1650.64        2500.00        67.6472       0.701173       0.647436        22.2967        8.70750                 NaN            NaN
  1647.44        2500.00        65.8361       0.702591       0.652621        22.5368        10.2718                 NaN            NaN
  1644.23        2500.00        64.0179       0.704013       0.657825        22.7779        11.8424                 NaN            NaN
  1641.03        2500.00        62.1924       0.705438       0.663048        23.0199        13.4192                 NaN            NaN
  1637.82        2500.00        60.7304       0.706608       0.665161        23.1979        14.6999                 NaN            NaN
  1634.62        2500.00        59.2637       0.707781       0.667280        23.3765        15.9848                 NaN            NaN
  1631.41        2500.00        57.7923       0.708956       0.669405        23.5555        17.2738                 NaN            NaN
  1628.21        2500.00        56.3161       0.710134       0.671534        23.7352        18.5670                 NaN            NaN
  1625.00        2500.00        54.8352       0.711313       0.673670        23.9153        19.8645                 NaN            NaN
  1621.79        2500.00        53.3495       0.712495       0.675810        24.0960        21.1662                 NaN            NaN
  1618.59        2500.00        51.8590       0.713679       0.677957        24.2773        22.4721                 NaN            NaN
  1615.38        2500.00        50.3637       0.714865       0.680108        24.4591        23.7823                 NaN            NaN
  1612.18        2500.00        49.1723       0.715842       0.678509        24.5891        24.8443                 NaN            NaN
  1608.97        2500.00        47.9777       0.716821       0.676905        24.7195        25.9091                 NaN            NaN
  1605.77        2500.00        46.7800       0.717801       0.675295        24.8502        26.9767                 NaN            NaN
  1602.56        2500.00        45.5792       0.718782       0.673679        24.9812        28.0471                 NaN            NaN
  1599.36        2500.00        44.3752       0.719765       0.672058        25.1125        29.1204                 NaN            NaN
  1596.15        2500.00        43.1681       0.720749       0.670431        25.2442        30.1965                 NaN            NaN
  1592.95        2500.00        41.9578       0.721734       0.668798        25.3761        31.2755                 NaN            NaN
  1589.74        2500.00        40.7444       0.722721       0.667160        25.5084        32.3574                 NaN            NaN
  1586.54        2500.00        39.6709       0.723619       0.660682        25.6193        33.3255                 NaN            NaN
  1583.33        2500.00        38.5948       0.724518       0.654188        25.7305        34.2960                 NaN            NaN
  1580.13        2500.00        37.5162       0.725418       0.647676        25.8419        35.2688                 NaN            NaN
  1576.92        2500.00        36.4351       0.726319       0.641147        25.9535        36.2439                 NaN            NaN
  1573.72        2500.00        35.3515       0.727221       0.634602        26.0654        37.2213                 NaN            NaN
  1570.51        2500.00        34.2653       0.728125       0.628039        26.1775        38.2010                 NaN            NaN
  1567.31        2500.00        33.1765       0.729030       0.621459        26.2899        39.1831                 NaN            NaN
  1564.10        2500.00        32.0852       0.729936       0.614861        26.4025        40.1675                 NaN            NaN
  1560.90        2500.00        31.0305       0.730824       0.604463        26.5138        41.1204                 NaN            NaN
  1557.69        2500.00        29.9733       0.731715       0.594040        26.6254        42.0755                 NaN            NaN
  1554.49        2500.00        28.9028       0.732616       0.581488        26.7414        43.0417                 NaN            NaN
  1551.28        2500.00        27.5342       0.733777       0.579579        26.8771        42.6406        1.63479                 NaN
  1548.08        2500.00        26.0767       0.735028       0.578019        27.0263        42.0770        3.50691                 NaN
  1544.87        2500.00        24.4121       0.736498       0.561710        27.2376        42.7362        1.13528        3.18071     
  1541.67        2500.00        24.4106       0.736522       0.561730        27.2381        42.7370        1.13530        3.18077     
  1538.46        2500.00        21.2433       0.739336       0.519466        27.6597        44.5475        3.94265        1.34798     
