|6.6.6
Archiving\03_Data\Dfrac/QFM_m4.75/WD94/WD94_6.tab                         
           1
T(K)    
  0.000000000000000E+000
  0.000000000000000E+000
           0
           3
T(K)           P(bar)         rho,kg/m3     
  2000.00        2500.00        7283.63     
  1997.49        2500.00        7284.71     
  1994.99        2500.00        7285.80     
  1992.48        2500.00        7286.88     
  1989.97        2500.00        7287.96     
  1987.47        2500.00        7289.04     
  1984.96        2500.00        7290.12     
  1982.46        2500.00        7291.20     
  1979.95        2500.00        7292.27     
  1977.44        2500.00        7293.35     
  1974.94        2500.00        7294.43     
  1972.43        2500.00        7295.50     
  1969.92        2500.00        7296.58     
  1967.42        2500.00        7297.65     
  1964.91        2500.00        7298.72     
  1962.41        2500.00        7299.80     
  1959.90        2500.00        7300.87     
  1957.39        2500.00        7301.94     
  1954.89        2500.00        7303.01     
  1952.38        2500.00        7304.08     
  1949.87        2500.00        7305.15     
  1947.37        2500.00        7306.22     
  1944.86        2500.00        7307.29     
  1942.36        2500.00        7308.35     
  1939.85        2500.00        7309.42     
  1937.34        2500.00        7310.48     
  1934.84        2500.00        7311.55     
  1932.33        2500.00        7312.61     
  1929.82        2500.00        7313.68     
  1927.32        2500.00        7314.74     
  1924.81        2500.00        7315.80     
  1922.31        2500.00        7316.86     
  1919.80        2500.00        7317.92     
  1917.29        2500.00        7318.98     
  1914.79        2500.00        7320.04     
  1912.28        2500.00        7003.65     
  1909.77        2500.00        3150.80     
  1907.27        2500.00        3161.58     
  1904.76        2500.00        3184.61     
  1902.26        2500.00        3154.79     
  1899.75        2500.00        3156.22     
  1897.24        2500.00        3157.84     
  1894.74        2500.00        3159.27     
  1892.23        2500.00        3161.49     
  1889.72        2500.00        3163.02     
  1887.22        2500.00        3164.32     
  1884.71        2500.00        3165.33     
  1882.21        2500.00        3167.26     
  1879.70        2500.00        3168.32     
  1877.19        2500.00        3169.58     
  1874.69        2500.00        3171.58     
  1872.18        2500.00        3172.99     
  1869.67        2500.00        3259.83     
  1867.17        2500.00        3175.93     
  1864.66        2500.00        3177.94     
  1862.16        2500.00        3184.07     
  1859.65        2500.00        3180.89     
  1857.14        2500.00        3182.17     
  1854.64        2500.00        3242.59     
  1852.13        2500.00        2926.80     
  1849.62        2500.00        3187.67     
  1847.12        2500.00        3211.25     
  1844.61        2500.00        3212.76     
  1842.11        2500.00        3214.66     
  1839.60        2500.00        3216.38     
  1837.09        2500.00        3217.59     
  1834.59        2500.00        3219.27     
  1832.08        2500.00        3220.98     
  1829.57        2500.00        3221.73     
  1827.07        2500.00        3224.49     
  1824.56        2500.00        3224.63     
  1822.06        2500.00        3227.09     
  1819.55        2500.00        3228.04     
  1817.04        2500.00        3229.94     
  1814.54        2500.00        3231.41     
  1812.03        2500.00        3232.90     
  1809.52        2500.00        3234.61     
  1807.02        2500.00        3236.05     
  1804.51        2500.00        3237.17     
  1802.01        2500.00        3239.01     
  1799.50        2500.00        3240.85     
  1796.99        2500.00        3242.48     
  1794.49        2500.00        3243.62     
  1791.98        2500.00        3245.03     
  1789.47        2500.00        3246.93     
  1786.97        2500.00        3247.48     
  1784.46        2500.00        3250.30     
  1781.95        2500.00        3251.16     
  1779.45        2500.00        3252.67     
  1776.94        2500.00        3254.15     
  1774.44        2500.00        3255.52     
  1771.93        2500.00        3257.05     
  1769.42        2500.00        3259.06     
  1766.92        2500.00        3260.21     
  1764.41        2500.00        3261.13     
  1761.90        2500.00        3262.81     
  1759.40        2500.00        3264.61     
  1756.89        2500.00        3265.58     
  1754.39        2500.00        3267.62     
  1751.88        2500.00        3268.70     
  1749.37        2500.00        3270.33     
  1746.87        2500.00        3272.05     
  1744.36        2500.00        3273.07     
  1741.85        2500.00        3274.77     
  1739.35        2500.00        3276.40     
  1736.84        2500.00        3277.58     
  1734.34        2500.00        3273.17     
  1731.83        2500.00        3279.89     
  1729.32        2500.00        3282.27     
  1726.82        2500.00        3282.41     
  1724.31        2500.00        3284.47     
  1721.80        2500.00        3286.31     
  1719.30        2500.00        3287.23     
  1716.79        2500.00        3288.33     
  1714.29        2500.00        3290.27     
  1711.78        2500.00        3290.89     
  1709.27        2500.00        3293.32     
  1706.77        2500.00        3293.60     
  1704.26        2500.00        3294.99     
  1701.75        2500.00        3296.61     
  1699.25        2500.00        3296.86     
  1696.74        2500.00        3299.23     
  1694.24        2500.00        3299.65     
  1691.73        2500.00        3301.22     
  1689.22        2500.00        3303.56     
  1686.72        2500.00        3303.35     
  1684.21        2500.00        3231.67     
  1681.70        2500.00        3219.25     
  1679.20        2500.00        3220.43     
  1676.69        2500.00        3220.97     
  1674.19        2500.00        3221.71     
  1671.68        2500.00        3222.92     
  1669.17        2500.00        3223.77     
  1666.67        2500.00        3225.34     
  1664.16        2500.00        3226.31     
  1661.65        2500.00        3227.12     
  1659.15        2500.00        3227.90     
  1656.64        2500.00        3228.65     
  1654.14        2500.00        3229.94     
  1651.63        2500.00        3230.80     
  1649.12        2500.00        3231.59     
  1646.62        2500.00        3232.72     
  1644.11        2500.00        3233.98     
  1641.60        2500.00        3234.73     
  1639.10        2500.00        3235.36     
  1636.59        2500.00        3236.30     
  1634.09        2500.00        3237.76     
  1631.58        2500.00        3240.91     
  1629.07        2500.00        3239.99     
  1626.57        2500.00        3239.03     
  1624.06        2500.00        3241.18     
  1621.55        2500.00        3241.85     
  1619.05        2500.00        3242.89     
  1616.54        2500.00        3242.20     
  1614.04        2500.00        3244.78     
  1611.53        2500.00        3245.55     
  1609.02        2500.00        3246.27     
  1606.52        2500.00        3247.55     
  1604.01        2500.00        3248.23     
  1601.50        2500.00        3249.29     
  1599.00        2500.00        3249.97     
  1596.49        2500.00        3250.81     
  1593.98        2500.00        3253.70     
  1591.48        2500.00        3252.08     
  1588.97        2500.00        3253.30     
  1586.47        2500.00        3254.28     
  1583.96        2500.00        3255.53     
  1581.45        2500.00        3255.64     
  1578.95        2500.00        3256.31     
  1576.44        2500.00        3257.69     
  1573.93        2500.00        3258.69     
  1571.43        2500.00        3259.40     
  1568.92        2500.00        3261.64     
  1566.42        2500.00        3258.86     
  1563.91        2500.00        3261.87     
  1561.40        2500.00        3261.73     
  1558.90        2500.00        3263.35     
  1556.39        2500.00        3264.12     
  1553.88        2500.00        3264.68     
  1551.38        2500.00        3265.99     
  1548.87        2500.00        3266.62     
  1546.37        2500.00        3266.49     
  1543.86        2500.00        3268.17     
  1541.35        2500.00        3268.34     
  1538.85        2500.00        3269.65     
  1536.34        2500.00        3269.91     
  1533.83        2500.00        3269.56     
  1531.33        2500.00        3253.20     
  1528.82        2500.00        3253.18     
  1526.32        2500.00        3254.75     
  1523.81        2500.00        3256.62     
  1521.30        2500.00        3257.83     
  1518.80        2500.00        3259.26     
  1516.29        2500.00        3260.98     
  1513.78        2500.00        3262.10     
  1511.28        2500.00        3263.75     
  1508.77        2500.00        3265.36     
  1506.27        2500.00        3267.46     
  1503.76        2500.00        3268.00     
  1501.25        2500.00        3269.50     
  1498.75        2500.00        3263.97     
  1496.24        2500.00        3256.68     
  1493.73        2500.00        3258.63     
  1491.23        2500.00        3260.63     
  1488.72        2500.00        3262.53     
  1486.22        2500.00        3264.71     
  1483.71        2500.00        3266.64     
  1481.20        2500.00        3268.39     
  1478.70        2500.00        3270.88     
  1476.19        2500.00        3273.26     
  1473.68        2500.00        3274.88     
  1471.18        2500.00        3277.28     
  1468.67        2500.00        3278.94     
  1466.17        2500.00        3281.27     
  1463.66        2500.00        3283.45     
  1461.15        2500.00        3285.67     
  1458.65        2500.00        3287.70     
  1456.14        2500.00        3106.05     
  1453.63        2500.00        3113.19     
  1451.13        2500.00        3116.15     
  1448.62        2500.00        3120.24     
  1446.12        2500.00        3123.27     
  1443.61        2500.00        3129.34     
  1441.10        2500.00        3210.59     
  1438.60        2500.00        3210.78     
  1436.09        2500.00        3210.95     
  1433.58        2500.00        3211.11     
  1431.08        2500.00        3211.32     
  1428.57        2500.00        3211.47     
  1426.07        2500.00        3211.64     
  1423.56        2500.00        3211.82     
  1421.05        2500.00        3212.01     
  1418.55        2500.00        3212.16     
  1416.04        2500.00        3212.32     
  1413.53        2500.00        3212.45     
  1411.03        2500.00        3212.60     
  1408.52        2500.00        3212.65     
  1406.02        2500.00        3212.86     
  1403.51        2500.00        3212.95     
  1401.00        2500.00        3213.05     
  1398.50        2500.00        3213.12     
  1395.99        2500.00        3213.23     
  1393.48        2500.00        3213.25     
  1390.98        2500.00        3213.36     
  1388.47        2500.00        3213.35     
  1385.96        2500.00        3213.32     
  1383.46        2500.00        3213.35     
  1380.95        2500.00        3213.39     
  1378.45        2500.00        3213.30     
  1375.94        2500.00        3213.25     
  1373.43        2500.00        3213.24     
  1370.93        2500.00        3213.14     
  1368.42        2500.00        3213.02     
  1365.91        2500.00        3212.85     
  1363.41        2500.00        3212.71     
  1360.90        2500.00        3212.49     
  1358.40        2500.00        3212.33     
  1355.89        2500.00        3212.11     
  1353.38        2500.00        3211.84     
  1350.88        2500.00        3211.60     
  1348.37        2500.00        3211.24     
  1345.86        2500.00        3210.92     
  1343.36        2500.00        3210.50     
  1340.85        2500.00        3210.13     
  1338.35        2500.00        3209.69     
  1335.84        2500.00        3209.26     
  1333.33        2500.00        3208.73     
  1330.83        2500.00        3208.23     
  1328.32        2500.00        3207.63     
  1325.81        2500.00        3206.97     
  1323.31        2500.00        3206.30     
  1320.80        2500.00        3205.59     
  1318.30        2500.00        3204.98     
  1315.79        2500.00        3204.16     
  1313.28        2500.00        2819.34     
  1310.78        2500.00        2800.15     
  1308.27        2500.00        2799.94     
  1305.76        2500.00        2799.64     
  1303.26        2500.00        2799.31     
  1300.75        2500.00        2798.77     
  1298.25        2500.00        2794.53     
  1295.74        2500.00        2806.93     
  1293.23        2500.00        2792.58     
  1290.73        2500.00        2799.64     
  1288.22        2500.00        2827.07     
  1285.71        2500.00        2782.25     
  1283.21        2500.00        2775.37     
  1280.70        2500.00        3125.82     
  1278.20        2500.00        2835.57     
  1275.69        2500.00        2785.16     
  1273.18        2500.00        2797.53     
  1270.68        2500.00        2809.28     
  1268.17        2500.00        2799.72     
  1265.66        2500.00        2800.41     
  1263.16        2500.00        2831.36     
  1260.65        2500.00        2717.30     
  1258.15        2500.00        2768.93     
  1255.64        2500.00        3069.40     
  1253.13        2500.00        2871.35     
  1250.63        2500.00        2716.21     
  1248.12        2500.00        3228.56     
  1245.61        2500.00        2685.79     
  1243.11        2500.00        3073.93     
  1240.60        2500.00        2640.23     
  1238.10        2500.00        2982.62     
  1235.59        2500.00        2612.53     
  1233.08        2500.00        3494.28     
  1230.58        2500.00        3492.98     
  1228.07        2500.00        2708.94     
  1225.56        2500.00        2708.95     
  1223.06        2500.00        2708.98     
  1220.55        2500.00        2709.14     
  1218.05        2500.00        2709.41     
  1215.54        2500.00        2709.41     
  1213.03        2500.00        2709.72     
  1210.53        2500.00        2709.86     
  1208.02        2500.00        2710.03     
  1205.51        2500.00        2701.50     
  1203.01        2500.00        2701.63     
  1200.50        2500.00        2710.52     
  1197.99        2500.00        2701.97     
  1195.49        2500.00        2710.52     
  1192.98        2500.00        2710.80     
  1190.48        2500.00        2710.92     
  1187.97        2500.00        2711.08     
  1185.46        2500.00        2711.24     
  1182.96        2500.00        2711.33     
  1180.45        2500.00        2711.57     
  1177.94        2500.00        2711.57     
  1175.44        2500.00        2711.79     
  1172.93        2500.00        2711.93     
  1170.43        2500.00        2712.04     
  1167.92        2500.00        2712.19     
  1165.41        2500.00        2712.33     
  1162.91        2500.00        2713.79     
  1160.40        2500.00        2712.62     
  1157.89        2500.00        2712.69     
  1155.39        2500.00        2712.92     
  1152.88        2500.00        2713.04     
  1150.38        2500.00        2713.16     
  1147.87        2500.00        2713.33     
  1145.36        2500.00        2713.43     
  1142.86        2500.00        2713.64     
  1140.35        2500.00        2713.70     
  1137.84        2500.00        2713.84     
  1135.34        2500.00        2713.98     
  1132.83        2500.00        2714.11     
  1130.33        2500.00        2714.25     
  1127.82        2500.00        2714.39     
  1125.31        2500.00        2714.52     
  1122.81        2500.00        2714.66     
  1120.30        2500.00        2714.87     
  1117.79        2500.00        2714.98     
  1115.29        2500.00        2715.16     
  1112.78        2500.00        2715.28     
  1110.28        2500.00        2715.41     
  1107.77        2500.00        2715.50     
  1105.26        2500.00        2715.64     
  1102.76        2500.00        2715.86     
  1100.25        2500.00        2715.97     
  1097.74        2500.00        2716.02     
  1095.24        2500.00        2716.28     
  1092.73        2500.00        2716.29     
  1090.23        2500.00        2716.48     
  1087.72        2500.00        2716.68     
  1085.21        2500.00        2716.82     
  1082.71        2500.00        2716.95     
  1080.20        2500.00        2717.07     
  1077.69        2500.00        2717.22     
  1075.19        2500.00        2717.35     
  1072.68        2500.00        2717.45     
  1070.18        2500.00        2719.18     
  1067.67        2500.00        2717.48     
  1065.16        2500.00        2717.62     
  1062.66        2500.00        2717.75     
  1060.15        2500.00        2717.88     
  1057.64        2500.00        2719.95     
  1055.14        2500.00        2718.14     
  1052.63        2500.00        2719.99     
  1050.13        2500.00        2718.42     
  1047.62        2500.00        2718.77     
  1045.11        2500.00        2718.65     
  1042.61        2500.00        2718.95     
  1040.10        2500.00        2718.91     
  1037.59        2500.00        2719.07     
  1035.09        2500.00        2719.20     
  1032.58        2500.00        2719.34     
  1030.08        2500.00        2720.93     
  1027.57        2500.00        2721.34     
  1025.06        2500.00        2721.19     
  1022.56        2500.00        2721.82     
  1020.05        2500.00        2721.95     
  1017.54        2500.00        2722.08     
  1015.04        2500.00        2720.25     
  1012.53        2500.00        2720.38     
  1010.03        2500.00        2720.51     
  1007.52        2500.00        2720.64     
  1005.01        2500.00        2720.77     
  1002.51        2500.00        2720.90     
  1000.00        2500.00        2713.86     
