|6.6.6
Archiving\03_Data\eq/QFM_m2.25/GRV/GRV_3.tab                              
           1
T(K)    
  0.000000000000000E+000
  0.000000000000000E+000
           0
           9
T(K)           P(bar)         melt(TH)       pxmn           Sp(TH)         O(HP)          Opx(TH)        Cpx(TH)        Cpx(TH)       
  2000.00        2500.00        99.3200       0.679976                 NaN            NaN            NaN            NaN            NaN
  1996.79        2500.00        99.3200       0.680049                 NaN            NaN            NaN            NaN            NaN
  1993.59        2500.00        99.3199       0.680122                 NaN            NaN            NaN            NaN            NaN
  1990.38        2500.00        99.3198       0.680196                 NaN            NaN            NaN            NaN            NaN
  1987.18        2500.00        99.3197       0.680269                 NaN            NaN            NaN            NaN            NaN
  1983.97        2500.00        99.3197       0.680342                 NaN            NaN            NaN            NaN            NaN
  1980.77        2500.00        99.3196       0.680416                 NaN            NaN            NaN            NaN            NaN
  1977.56        2500.00        99.3195       0.680489                 NaN            NaN            NaN            NaN            NaN
  1974.36        2500.00        99.3194       0.680563                 NaN            NaN            NaN            NaN            NaN
  1971.15        2500.00        99.3194       0.680636                 NaN            NaN            NaN            NaN            NaN
  1967.95        2500.00        99.3193       0.680710                 NaN            NaN            NaN            NaN            NaN
  1964.74        2500.00        99.3192       0.680783                 NaN            NaN            NaN            NaN            NaN
  1961.54        2500.00        99.3191       0.680857                 NaN            NaN            NaN            NaN            NaN
  1958.33        2500.00        99.3191       0.680931                 NaN            NaN            NaN            NaN            NaN
  1955.13        2500.00        99.3190       0.681005                 NaN            NaN            NaN            NaN            NaN
  1951.92        2500.00        99.3189       0.681079                 NaN            NaN            NaN            NaN            NaN
  1948.72        2500.00        99.3188       0.681153                 NaN            NaN            NaN            NaN            NaN
  1945.51        2500.00        99.3188       0.681227                 NaN            NaN            NaN            NaN            NaN
  1942.31        2500.00        99.3187       0.681301                 NaN            NaN            NaN            NaN            NaN
  1939.10        2500.00        99.3186       0.681375                 NaN            NaN            NaN            NaN            NaN
  1935.90        2500.00        99.3186       0.681449                 NaN            NaN            NaN            NaN            NaN
  1932.69        2500.00        99.3185       0.681523                 NaN            NaN            NaN            NaN            NaN
  1929.49        2500.00        99.3184       0.681597                 NaN            NaN            NaN            NaN            NaN
  1926.28        2500.00        99.3183       0.681671                 NaN            NaN            NaN            NaN            NaN
  1923.08        2500.00        99.3183       0.681746                 NaN            NaN            NaN            NaN            NaN
  1919.87        2500.00        99.3182       0.681820                 NaN            NaN            NaN            NaN            NaN
  1916.67        2500.00        99.3181       0.681894                 NaN            NaN            NaN            NaN            NaN
  1913.46        2500.00        99.3180       0.681969                 NaN            NaN            NaN            NaN            NaN
  1910.26        2500.00        99.3180       0.682043                 NaN            NaN            NaN            NaN            NaN
  1907.05        2500.00        99.3179       0.682118                 NaN            NaN            NaN            NaN            NaN
  1903.85        2500.00        99.3178       0.682192                 NaN            NaN            NaN            NaN            NaN
  1900.64        2500.00        99.3177       0.682267                 NaN            NaN            NaN            NaN            NaN
  1897.44        2500.00        99.3177       0.682342                 NaN            NaN            NaN            NaN            NaN
  1894.23        2500.00        99.3176       0.682416                 NaN            NaN            NaN            NaN            NaN
  1891.03        2500.00        99.3175       0.682491                 NaN            NaN            NaN            NaN            NaN
  1887.82        2500.00        99.3174       0.682566                 NaN            NaN            NaN            NaN            NaN
  1884.62        2500.00        99.3174       0.682641                 NaN            NaN            NaN            NaN            NaN
  1881.41        2500.00        99.3173       0.682716                 NaN            NaN            NaN            NaN            NaN
  1878.21        2500.00        99.3172       0.682791                 NaN            NaN            NaN            NaN            NaN
  1875.00        2500.00        99.3171       0.682866                 NaN            NaN            NaN            NaN            NaN
  1871.79        2500.00        99.3171       0.682941                 NaN            NaN            NaN            NaN            NaN
  1868.59        2500.00        99.3170       0.683016                 NaN            NaN            NaN            NaN            NaN
  1865.38        2500.00        99.3169       0.683091                 NaN            NaN            NaN            NaN            NaN
  1862.18        2500.00        99.3168       0.683166                 NaN            NaN            NaN            NaN            NaN
  1858.97        2500.00        99.3168       0.683241                 NaN            NaN            NaN            NaN            NaN
  1855.77        2500.00        99.3167       0.683317                 NaN            NaN            NaN            NaN            NaN
  1852.56        2500.00        99.3166       0.683392                 NaN            NaN            NaN            NaN            NaN
  1849.36        2500.00        99.3165       0.683467                 NaN            NaN            NaN            NaN            NaN
  1846.15        2500.00        99.3165       0.683543                 NaN            NaN            NaN            NaN            NaN
  1842.95        2500.00        99.3164       0.683618                 NaN            NaN            NaN            NaN            NaN
  1839.74        2500.00        99.3163       0.683694                 NaN            NaN            NaN            NaN            NaN
  1836.54        2500.00        99.3162       0.683769                 NaN            NaN            NaN            NaN            NaN
  1833.33        2500.00        99.3162       0.683845                 NaN            NaN            NaN            NaN            NaN
  1830.13        2500.00        99.3161       0.683921                 NaN            NaN            NaN            NaN            NaN
  1826.92        2500.00        99.3160       0.683996                 NaN            NaN            NaN            NaN            NaN
  1823.72        2500.00        99.3159       0.684072                 NaN            NaN            NaN            NaN            NaN
  1820.51        2500.00        99.3050       0.684163       0.108713E-001            NaN            NaN            NaN            NaN
  1817.31        2500.00        99.2916       0.684256       0.241302E-001            NaN            NaN            NaN            NaN
  1814.10        2500.00        99.2783       0.684350       0.373929E-001            NaN            NaN            NaN            NaN
  1810.90        2500.00        99.2649       0.684444       0.506594E-001            NaN            NaN            NaN            NaN
  1807.69        2500.00        99.2515       0.684538       0.639296E-001            NaN            NaN            NaN            NaN
  1804.49        2500.00        99.2382       0.684632       0.772036E-001            NaN            NaN            NaN            NaN
  1801.28        2500.00        99.2248       0.684726       0.904814E-001            NaN            NaN            NaN            NaN
  1798.08        2500.00        99.2114       0.684820       0.103763                 NaN            NaN            NaN            NaN
  1794.87        2500.00        99.1980       0.684914       0.117048                 NaN            NaN            NaN            NaN
  1791.67        2500.00        99.1853       0.685006       0.129661                 NaN            NaN            NaN            NaN
  1788.46        2500.00        99.1726       0.685099       0.142277                 NaN            NaN            NaN            NaN
  1785.26        2500.00        99.1599       0.685192       0.154896                 NaN            NaN            NaN            NaN
  1782.05        2500.00        99.1472       0.685285       0.167519                 NaN            NaN            NaN            NaN
  1778.85        2500.00        99.1349       0.685378       0.179735                 NaN            NaN            NaN            NaN
  1775.64        2500.00        99.1226       0.685470       0.191954                 NaN            NaN            NaN            NaN
  1772.44        2500.00        99.1092       0.685564       0.205282                 NaN            NaN            NaN            NaN
  1769.23        2500.00        98.9879       0.685694       0.215949       0.110450                 NaN            NaN            NaN
  1766.03        2500.00        98.2212       0.686055       0.227424       0.865316                 NaN            NaN            NaN
  1762.82        2500.00        97.4537       0.686414       0.238910        1.62095                 NaN            NaN            NaN
  1759.62        2500.00        96.6855       0.686771       0.250407        2.37734                 NaN            NaN            NaN
  1756.41        2500.00        95.9165       0.687126       0.261916        3.13448                 NaN            NaN            NaN
  1753.21        2500.00        95.1467       0.687480       0.273435        3.89237                 NaN            NaN            NaN
  1750.00        2500.00        94.3762       0.687831       0.284966        4.65100                 NaN            NaN            NaN
  1746.79        2500.00        93.6050       0.688181       0.296507        5.41036                 NaN            NaN            NaN
  1743.59        2500.00        92.8330       0.688528       0.308060        6.17044                 NaN            NaN            NaN
  1740.38        2500.00        92.0575       0.688875       0.318717        6.93492                 NaN            NaN            NaN
  1737.18        2500.00        91.2813       0.689219       0.329383        7.70012                 NaN            NaN            NaN
  1733.97        2500.00        90.5043       0.689561       0.340059        8.46603                 NaN            NaN            NaN
  1730.77        2500.00        89.7267       0.689902       0.350745        9.23264                 NaN            NaN            NaN
  1727.56        2500.00        88.9484       0.690239       0.361440        9.99995                 NaN            NaN            NaN
  1724.36        2500.00        88.1693       0.690575       0.372144        10.7679                 NaN            NaN            NaN
  1721.15        2500.00        87.3896       0.690909       0.382857        11.5366                 NaN            NaN            NaN
  1717.95        2500.00        86.6092       0.691240       0.393580        12.3060                 NaN            NaN            NaN
  1714.74        2500.00        85.8441       0.691563       0.403399        13.0610                 NaN            NaN            NaN
  1711.54        2500.00        85.0783       0.691884       0.413227        13.8166                 NaN            NaN            NaN
  1708.33        2500.00        84.3119       0.692203       0.423062        14.5728                 NaN            NaN            NaN
  1705.13        2500.00        83.5449       0.692519       0.432904        15.3297                 NaN            NaN            NaN
  1701.92        2500.00        82.7773       0.692833       0.442754        16.0871                 NaN            NaN            NaN
  1698.72        2500.00        82.0091       0.693144       0.452611        16.8452                 NaN            NaN            NaN
  1695.51        2500.00        81.2402       0.693453       0.462475        17.6038                 NaN            NaN            NaN
  1692.31        2500.00        80.4708       0.693759       0.472346        18.3631                 NaN            NaN            NaN
  1689.10        2500.00        79.7283       0.694053       0.481581        19.0961                 NaN            NaN            NaN
  1685.90        2500.00        78.9852       0.694345       0.490821        19.8296                 NaN            NaN            NaN
  1682.69        2500.00        78.2417       0.694634       0.500067        20.5636                 NaN            NaN            NaN
  1679.49        2500.00        77.4976       0.694920       0.509319        21.2982                 NaN            NaN            NaN
  1676.28        2500.00        76.7698       0.695200       0.518364        22.0166                 NaN            NaN            NaN
  1673.08        2500.00        76.0416       0.695477       0.527416        22.7355                 NaN            NaN            NaN
  1669.87        2500.00        74.9044       0.696145       0.535855        23.3233       0.540271                 NaN            NaN
  1666.67        2500.00        72.7494       0.697794       0.543155        23.6015        2.40822                 NaN            NaN
  1663.46        2500.00        70.9719       0.699178       0.547620        23.8167        3.96466                 NaN            NaN
  1660.26        2500.00        69.1875       0.700566       0.552101        24.0327        5.52721                 NaN            NaN
  1657.05        2500.00        67.3961       0.701958       0.556599        24.2494        7.09591                 NaN            NaN
  1653.85        2500.00        65.5978       0.703353       0.561112        24.4670        8.67077                 NaN            NaN
  1650.64        2500.00        63.7925       0.704751       0.565642        24.6853        10.2518                 NaN            NaN
  1647.44        2500.00        61.9801       0.706153       0.570188        24.9045        11.8391                 NaN            NaN
  1644.23        2500.00        60.1607       0.707558       0.574751        25.1244        13.4326                 NaN            NaN
  1641.03        2500.00        58.3342       0.708967       0.579330        25.3451        15.0324                 NaN            NaN
  1637.82        2500.00        56.9771       0.710051       0.579754        25.4859        16.2471                 NaN            NaN
  1634.62        2500.00        55.6160       0.711137       0.580178        25.6271        17.4656                 NaN            NaN
  1631.41        2500.00        54.2509       0.712225       0.580603        25.7687        18.6876                 NaN            NaN
  1628.21        2500.00        52.8817       0.713315       0.581027        25.9106        19.9133                 NaN            NaN
  1625.00        2500.00        51.5085       0.714407       0.581452        26.0529        21.1427                 NaN            NaN
  1621.79        2500.00        50.1312       0.715501       0.581876        26.1956        22.3758                 NaN            NaN
  1618.59        2500.00        48.7498       0.716596       0.582301        26.3387        23.6126                 NaN            NaN
  1615.38        2500.00        47.3643       0.717693       0.582726        26.4822        24.8531                 NaN            NaN
  1612.18        2500.00        46.2374       0.718616       0.579252        26.5826        25.8821                 NaN            NaN
  1608.97        2500.00        45.1077       0.719540       0.575769        26.6832        26.9138                 NaN            NaN
  1605.77        2500.00        43.9753       0.720465       0.572276        26.7840        27.9480                 NaN            NaN
  1602.56        2500.00        42.8401       0.721392       0.568773        26.8850        28.9848                 NaN            NaN
  1599.36        2500.00        41.7020       0.722319       0.565261        26.9862        30.0241                 NaN            NaN
  1596.15        2500.00        40.5612       0.723248       0.561738        27.0877        31.0661                 NaN            NaN
  1592.95        2500.00        39.4176       0.724178       0.558205        27.1894        32.1106                 NaN            NaN
  1589.74        2500.00        38.2712       0.725110       0.554663        27.2913        33.1578                 NaN            NaN
  1586.54        2500.00        37.2287       0.725975       0.547282        27.3787        34.1194                 NaN            NaN
  1583.33        2500.00        36.1838       0.726841       0.539883        27.4662        35.0832                 NaN            NaN
  1580.13        2500.00        35.1366       0.727708       0.532466        27.5540        36.0493                 NaN            NaN
  1576.92        2500.00        34.0870       0.728577       0.525030        27.6419        37.0175                 NaN            NaN
  1573.72        2500.00        33.0310       0.729464       0.514453        27.7346        37.9905                 NaN            NaN
  1570.51        2500.00        31.9726       0.730352       0.503850        27.8274        38.9658                 NaN            NaN
  1567.31        2500.00        30.9852       0.731163       0.493760        27.9084        39.8814                 NaN            NaN
  1564.10        2500.00        29.6902       0.732240       0.496064        27.9992        39.2909        1.79143                 NaN
  1560.90        2500.00        28.3518       0.733379       0.496920        28.1030        38.7315        3.58339                 NaN
  1557.69        2500.00        27.0095       0.734520       0.497779        28.2072        38.1702        5.38088                 NaN
  1554.49        2500.00        25.6632       0.735663       0.498640        28.3116        37.6070        7.18391                 NaN
  1551.28        2500.00        24.3129       0.736808       0.499505        28.4163        37.0420        8.99250                 NaN
  1548.08        2500.00        22.9567       0.737986       0.496009        28.5366        36.7827        10.4900                 NaN
  1544.87        2500.00        21.5733       0.739207       0.484464        28.6751        37.0542        10.9020       0.571742     
  1541.67        2500.00        21.5721       0.739228       0.484482        28.6755        37.0548        10.9021       0.571750     
  1538.46        2500.00        18.8685       0.741642       0.440878        28.9835        38.7822        3.41293        8.77040     
